Data File Name,2100 expert_High Sensitivity DNA Assay_DE13805071_2013-12-03_10-55-45.xad
Data File Path,C:\Users\Laura\Documents\ARTICLE\05_different cells\adipocytes mouse\shearing
Date Created,"Tuesday, December 03, 2013 9:55:45 AM"
Date Last Modified,"Tuesday, December 03, 2013 10:37:03 AM"
Version Created,B.02.08.SI648
Version Last Modified,B.02.08.SI648
 
Assay Name,High Sensitivity DNA
Assay Path,C:\Program Files (x86)\Agilent\2100 bioanalyzer\2100 expert\assays\dsDNA
Assay Title,High Sensitivity DNA Assay
Assay Version,1.03
 
Number of Samples Run,11
 
Sample Name,+
Number of Events,2121
 
Time,Value
32,2.981405E-02
32.05,0.1006266
32.1,1.921628E-02
32.15,-9.839235E-02
32.2,-0.0887466
32.25,-9.008262E-02
32.3,9.938675E-03
32.35,0.1753244
32.4,0.2156158
32.45,0.1695999
32.5,8.231459E-02
32.55,-3.397389E-02
32.6,-0.1207074
32.65,-0.1732301
32.7,-0.1449184
32.75,-0.174677
32.8,-0.1179954
32.85,-4.385065E-02
32.9,-0.0118147
32.95,1.75611E-03
33,-0.1337068
33.05,-0.2257524
33.1,-0.2518372
33.15,-0.2448496
33.2,-0.1506663
33.25,-5.711192E-02
33.3,-1.852094E-02
33.35,-0.1241968
33.4,-0.2646964
33.45,-0.3056469
33.5,-0.3347398
33.55,-0.3458964
33.6,-0.3588762
33.65,-0.4369472
33.7,-0.5571229
33.75,-0.5549309
33.8,-0.4870392
33.85,-0.437541
33.9,-0.4366824
33.95,-0.4682073
34,-0.5023282
34.05,-0.5564483
34.1,-0.4682078
34.15,-0.4100027
34.2,-0.4251342
34.25,-0.4801588
34.3,-0.5578339
34.35,-0.5455598
34.4,-0.5563125
34.45,-0.4914443
34.5,-0.3755243
34.55,-0.3118083
34.6,-0.3466395
34.65,-0.4298451
34.7,-0.5091006
34.75,-0.6275667
34.8,-0.6987072
34.85,-0.7829489
34.9,-0.7154198
34.95,-0.6808683
35,-0.6416281
35.05,-0.6122275
35.1,-0.6767076
35.15,-0.8020977
35.2,-0.9419146
35.25,-0.9374278
35.3,-0.9540056
35.35,-0.8200467
35.4,-0.7245466
35.45,-0.6827516
35.5,-0.720221
35.55,-0.7649386
35.6,-0.7541344
35.65,-0.7402161
35.7,-0.7442573
35.75,-0.8199237
35.8,-0.9469486
35.85,-1.025214
35.9,-1.070345
35.95,-0.9386941
36,-0.8686228
36.05,-0.7534756
36.1,-0.7144967
36.15,-0.747206
36.2,-0.8363619
36.25,-0.8877791
36.3,-0.8956792
36.35,-1.017802
36.4,-1.10655
36.45,-1.161433
36.5,-1.169247
36.55,-1.151163
36.6,-1.158635
36.65,-1.137124
36.7,-1.121812
36.75,-1.152131
36.8,-1.12808
36.85,-1.103631
36.9,-1.005574
36.95,-0.9563364
37,-0.8714982
37.05,-0.9052092
37.1,-1.057857
37.15,-1.110842
37.2,-1.041825
37.25,-0.9843723
37.3,-1.00965
37.35,-1.034064
37.4,-1.063638
37.45,-1.016149
37.5,-0.8971642
37.55,-0.8122002
37.6,-0.8405273
37.65,-0.9162076
37.7,-0.9530072
37.75,-0.9853054
37.8,-1.024429
37.85,-1.004242
37.9,-0.9420554
37.95,-0.9257808
38,-0.9551815
38.05,-1.059196
38.1,-1.173901
38.15,-1.195909
38.2,-1.134036
38.25,-1.102345
38.3,-1.125836
38.35,-1.185313
38.4,-1.245877
38.45,-1.243867
38.5,-1.211398
38.55,-1.255482
38.6,-1.290815
38.65,-1.210418
38.7,-1.183142
38.75,-1.083652
38.8,-1.039301
38.85,-1.046362
38.9,-1.068725
38.95,-0.9320468
39,-0.7643815
39.05,-0.8085728
39.1,-0.9595915
39.15,-1.152963
39.2,-1.272169
39.25,-1.228483
39.3,-1.120036
39.35,-1.028203
39.4,-1.0528
39.45,-1.126428
39.5,-1.181599
39.55,-1.208755
39.6,-1.057904
39.65,-0.9396393
39.7,-0.8317671
39.75,-0.8547767
39.8,-0.9260274
39.85,-1.056532
39.9,-1.176412
39.95,-1.164074
40,-1.141223
40.05,-1.137808
40.1,-1.1117
40.15,-1.076854
40.2,-1.051048
40.25,-0.9878737
40.3,-0.8984428
40.35,-0.8973082
40.4,-0.8834028
40.45,-0.887037
40.5,-0.9457947
40.55,-1.037675
40.6,-1.058488
40.65,-1.003638
40.7,-0.9655631
40.75,-0.9559578
40.8,-1.03094
40.85,-1.099632
40.9,-1.066189
40.95,-1.085159
41,-0.9672465
41.05,-0.8816643
41.1,-0.815329
41.15,-0.7337168
41.2,-0.6683943
41.25,-0.7123411
41.3,-0.8933788
41.35,-1.076879
41.4,-1.141413
41.45,-1.111979
41.5,-1.065078
41.55,-0.9755426
41.6,-0.8596907
41.65,-0.8105974
41.7,-0.8696038
41.75,-0.8552532
41.8,-0.8638343
41.85,-0.8654109
41.9,-0.7179798
41.95,-0.7243358
42,-0.8029304
42.05,-0.9778253
42.1,-0.9969238
42.15,-0.916403
42.2,-0.8388934
42.25,-0.7403234
42.3,-0.7064086
42.35,-0.6907676
42.4,-0.6744082
42.45,-0.3927477
42.5,0.3512036
42.55,1.925652
42.6,5.522572
42.65,12.63522
42.7,24.55053
42.75,41.83969
42.8,64.47855
42.85,91.0013
42.9,117.524
42.95,139.2394
43,151.4016
43.05,150.1253
43.1,136.0633
43.15,113.1247
43.2,86.31516
43.25,60.4056
43.3,38.91819
43.35,23.50672
43.4,13.91975
43.45,8.671752
43.5,6.248167
43.55,5.328386
43.6,4.970388
43.65,4.697907
43.7,4.395252
43.75,4.098564
43.8,3.813948
43.85,3.546913
43.9,3.272635
43.95,2.986847
44,2.880282
44.05,2.886714
44.1,2.949243
44.15,2.935647
44.2,2.946781
44.25,2.843612
44.3,2.804409
44.35,2.85438
44.4,2.949439
44.45,3.015448
44.5,3.002302
44.55,2.999006
44.6,3.204102
44.65,3.379457
44.7,3.54391
44.75,3.611526
44.8,3.577327
44.85,3.514624
44.9,3.518348
44.95,3.750525
45,4.04333
45.05,4.193377
45.1,4.231713
45.15,4.236398
45.2,4.323588
45.25,4.353831
45.3,4.45342
45.35,4.626338
45.4,4.765159
45.45,4.917726
45.5,5.172718
45.55,5.377806
45.6,5.492068
45.65,5.539563
45.7,5.636174
45.75,5.729295
45.8,5.796786
45.85,5.970273
45.9,6.171873
45.95,6.312273
46,6.336452
46.05,6.280194
46.1,6.260042
46.15,6.348876
46.2,6.671224
46.25,6.997408
46.3,7.163305
46.35,7.250998
46.4,7.447425
46.45,7.559162
46.5,7.76551
46.55,7.829801
46.6,7.746908
46.65,7.737733
46.7,7.933473
46.75,8.326579
46.8,8.583008
46.85,8.817623
46.9,8.809472
46.95,8.787416
47,8.973926
47.05,9.172419
47.1,9.412049
47.15,9.533556
47.2,9.548312
47.25,9.654112
47.3,9.843205
47.35,10.05824
47.4,10.2114
47.45,10.54515
47.5,10.76772
47.55,10.82343
47.6,10.9423
47.65,11.09081
47.7,11.13115
47.75,11.2134
47.8,11.44002
47.85,11.73219
47.9,11.99261
47.95,12.23578
48,12.37298
48.05,12.55251
48.1,12.81657
48.15,12.99703
48.2,13.22393
48.25,13.38468
48.3,13.49609
48.35,13.5579
48.4,13.77383
48.45,14.05978
48.5,14.27353
48.55,14.52159
48.6,14.54795
48.65,14.61174
48.7,14.70235
48.75,14.90188
48.8,15.02649
48.85,15.12257
48.9,15.22324
48.95,15.50107
49,15.93007
49.05,16.17438
49.1,16.31979
49.15,16.24335
49.2,16.15028
49.25,16.22919
49.3,16.61372
49.35,16.97857
49.4,17.30655
49.45,17.69373
49.5,17.82856
49.55,17.78007
49.6,17.9125
49.65,18.16994
49.7,18.42648
49.75,18.70416
49.8,18.9483
49.85,18.97812
49.9,18.98365
49.95,19.12402
50,19.22986
50.05,19.42515
50.1,19.74684
50.15,19.91448
50.2,20.16903
50.25,20.25594
50.3,20.53941
50.35,20.5198
50.4,20.63734
50.45,20.9441
50.5,21.24489
50.55,21.66307
50.6,21.93793
50.65,22.07085
50.7,22.01093
50.75,22.12654
50.8,22.11904
50.85,22.31183
50.9,22.64173
50.95,22.98821
51,23.13911
51.05,23.30951
51.1,23.40946
51.15,23.59768
51.2,23.89874
51.25,24.11545
51.3,24.32108
51.35,24.43618
51.4,24.63418
51.45,24.69797
51.5,24.72028
51.55,24.91274
51.6,25.18435
51.65,25.64653
51.7,26.0699
51.75,26.30699
51.8,26.14159
51.85,25.96421
51.9,26.11434
51.95,26.36359
52,26.69981
52.05,27.06671
52.1,27.35603
52.15,27.45663
52.2,27.53744
52.25,27.75845
52.3,27.89992
52.35,28.04457
52.4,28.31184
52.45,28.42194
52.5,28.42856
52.55,28.38773
52.6,28.56019
52.65,28.82102
52.7,29.09904
52.75,29.32692
52.8,29.51804
52.85,29.473
52.9,29.5006
52.95,29.4825
53,29.78443
53.05,30.22874
53.1,30.5393
53.15,30.59507
53.2,30.40465
53.25,30.25319
53.3,30.2803
53.35,30.83793
53.4,31.44019
53.45,31.7887
53.5,31.8931
53.55,32.11165
53.6,32.21556
53.65,32.34445
53.7,32.38693
53.75,32.3873
53.8,32.44048
53.85,32.5529
53.9,32.68011
53.95,32.77807
54,32.96333
54.05,33.24853
54.1,33.55173
54.15,33.68721
54.2,33.77204
54.25,33.90853
54.3,34.09675
54.35,34.25905
54.4,34.44659
54.45,34.64325
54.5,34.54889
54.55,34.44693
54.6,34.68691
54.65,34.91191
54.7,35.27168
54.75,35.55303
54.8,35.69659
54.85,35.6646
54.9,35.69918
54.95,36.02427
55,36.11457
55.05,36.6226
55.1,36.96052
55.15,36.98491
55.2,36.97279
55.25,37.01892
55.3,36.8177
55.35,36.66225
55.4,36.94271
55.45,37.26703
55.5,37.25316
55.55,37.48105
55.6,37.69648
55.65,37.70463
55.7,38.0479
55.75,38.24961
55.8,38.44913
55.85,38.51455
55.9,38.75282
55.95,38.92962
56,38.90582
56.05,38.54451
56.1,38.02812
56.15,37.83504
56.2,38.10962
56.25,38.94624
56.3,39.8852
56.35,40.32931
56.4,39.94626
56.45,39.57754
56.5,39.31312
56.55,39.40038
56.6,39.84159
56.65,40.39627
56.7,40.57035
56.75,40.48331
56.8,40.30356
56.85,40.0768
56.9,40.32006
56.95,40.77934
57,41.12824
57.05,41.27439
57.1,41.06314
57.15,40.92061
57.2,41.22028
57.25,41.75489
57.3,42.1228
57.35,41.86694
57.4,41.49876
57.45,41.17944
57.5,41.43627
57.55,41.76968
57.6,42.02719
57.65,42.27756
57.7,42.44603
57.75,42.80338
57.8,43.076
57.85,42.83016
57.9,42.4226
57.95,42.415
58,42.47226
58.05,42.82259
58.1,43.07128
58.15,43.14131
58.2,43.23833
58.25,43.38274
58.3,43.40925
58.35,43.14481
58.4,43.09943
58.45,43.26372
58.5,43.48071
58.55,44.08692
58.6,44.18265
58.65,44.12938
58.7,44.34091
58.75,44.74438
58.8,44.99646
58.85,44.95697
58.9,44.88929
58.95,44.53477
59,44.21375
59.05,44.48002
59.1,44.64772
59.15,44.60021
59.2,44.6879
59.25,45.02464
59.3,45.75465
59.35,46.19448
59.4,46.3739
59.45,46.30585
59.5,46.20621
59.55,46.59209
59.6,46.69625
59.65,46.81931
59.7,46.51144
59.75,45.95803
59.8,45.9284
59.85,46.06949
59.9,46.5093
59.95,46.73122
60,46.93411
60.05,46.93604
60.1,46.85782
60.15,46.74114
60.2,46.59563
60.25,46.43938
60.3,46.26613
60.35,46.48325
60.4,47.0668
60.45,47.5534
60.5,47.68075
60.55,47.8805
60.6,47.79274
60.65,47.28743
60.7,46.97725
60.75,47.0228
60.8,47.18851
60.85,47.49549
60.9,47.68194
60.95,47.97427
61,48.16763
61.05,48.1544
61.1,48.29646
61.15,48.05963
61.2,47.60649
61.25,47.30919
61.3,47.64467
61.35,48.14002
61.4,48.31255
61.45,48.34284
61.5,48.48235
61.55,48.89386
61.6,49.08222
61.65,48.86539
61.7,48.41633
61.75,48.0575
61.8,47.93658
61.85,48.26723
61.9,48.72093
61.95,48.84864
62,48.615
62.05,48.65294
62.1,48.7063
62.15,48.68726
62.2,48.69092
62.25,48.99575
62.3,49.23385
62.35,49.12395
62.4,49.16438
62.45,49.15931
62.5,48.78091
62.55,48.35756
62.6,48.2964
62.65,48.53654
62.7,48.82598
62.75,49.11267
62.8,49.44657
62.85,49.47029
62.9,49.84333
62.95,50.06602
63,50.07803
63.05,49.65901
63.1,49.0066
63.15,48.62582
63.2,48.44624
63.25,48.89061
63.3,49.3116
63.35,49.68676
63.4,49.92836
63.45,49.97979
63.5,49.69392
63.55,49.23884
63.6,49.43613
63.65,49.94197
63.7,50.39405
63.75,50.66501
63.8,50.50591
63.85,50.42025
63.9,50.12856
63.95,49.85136
64,49.77551
64.05,49.6906
64.1,49.80356
64.15,49.93803
64.2,50.26587
64.25,50.26591
64.3,50.09593
64.35,50.17873
64.4,50.137
64.45,49.98735
64.5,49.8602
64.55,49.69904
64.6,49.76085
64.65,49.66111
64.7,49.52499
64.75,49.39827
64.8,49.45507
64.85,49.63763
64.9,49.88568
64.95,50.06388
65,50.112
65.05,49.98649
65.1,50.07583
65.15,50.23579
65.2,50.32032
65.25,50.33996
65.3,50.22307
65.35,50.15833
65.4,50.33614
65.45,50.27839
65.5,50.02684
65.55,49.93913
65.6,50.17102
65.65,50.06944
65.7,50.09183
65.75,50.45626
65.8,50.62777
65.85,50.73896
65.9,50.87794
65.95,50.97486
66,50.53811
66.05,50.25249
66.1,49.91592
66.15,49.87233
66.2,49.72461
66.25,49.85369
66.3,49.94795
66.35,49.81561
66.4,49.82248
66.45,50.11215
66.5,50.48808
66.55,50.90693
66.6,51.30252
66.65,51.29948
66.7,51.13522
66.75,51.01253
66.8,51.05846
66.85,50.76878
66.9,50.51159
66.95,50.30062
67,50.18821
67.05,50.22639
67.1,50.33661
67.15,50.6713
67.2,51.07892
67.25,51.07749
67.3,51.21926
67.35,50.85225
67.4,50.35398
67.45,50.28577
67.5,50.39875
67.55,50.47199
67.6,50.21313
67.65,50.03559
67.7,50.2848
67.75,50.399
67.8,50.87231
67.85,51.07289
67.9,51.17984
67.95,50.9415
68,50.65487
68.05,50.69899
68.1,50.88794
68.15,51.06152
68.2,51.38536
68.25,51.63391
68.3,51.17601
68.35,50.76496
68.4,50.33993
68.45,49.70557
68.5,48.9755
68.55,48.94239
68.6,49.49294
68.65,50.41578
68.7,51.31218
68.75,51.41011
68.8,50.88882
68.85,50.4397
68.9,50.06749
68.95,49.39686
69,49.15322
69.05,49.2336
69.1,49.41807
69.15,49.82845
69.2,50.10327
69.25,49.88527
69.3,49.41053
69.35,49.21111
69.4,49.05746
69.45,49.04413
69.5,48.90456
69.55,49.1308
69.6,48.84019
69.65,48.41898
69.7,48.26703
69.75,48.38641
69.8,48.59551
69.85,48.63237
69.9,48.7537
69.95,48.49863
70,48.09837
70.05,47.72845
70.1,47.60532
70.15,47.96486
70.2,48.68873
70.25,49.12969
70.3,49.00787
70.35,48.3726
70.4,47.88377
70.45,47.74328
70.5,48.02932
70.55,48.22943
70.6,48.56064
70.65,48.37814
70.7,48.1213
70.75,47.54917
70.8,46.84645
70.85,46.45608
70.9,46.44165
70.95,46.91045
71,47.32069
71.05,47.88776
71.1,47.99031
71.15,47.74206
71.2,47.69524
71.25,47.56782
71.3,47.30272
71.35,47.56965
71.4,47.78697
71.45,47.92073
71.5,47.97107
71.55,47.75071
71.6,47.19189
71.65,46.4864
71.7,46.55492
71.75,46.59171
71.8,46.74124
71.85,47.22491
71.9,47.52446
71.95,47.61917
72,47.66732
72.05,47.73466
72.1,47.37745
72.15,46.82571
72.2,46.29831
72.25,46.10721
72.3,45.8437
72.35,45.76253
72.4,45.97285
72.45,46.40065
72.5,46.5372
72.55,46.50056
72.6,46.58199
72.65,46.26157
72.7,46.06456
72.75,46.2183
72.8,46.46504
72.85,46.23081
72.9,45.7116
72.95,45.28182
73,44.76544
73.05,44.63966
73.1,44.85375
73.15,45.0455
73.2,45.1939
73.25,45.35691
73.3,45.36273
73.35,45.63681
73.4,45.70303
73.45,45.54621
73.5,45.11617
73.55,44.88115
73.6,44.76665
73.65,44.52598
73.7,44.67637
73.75,44.94497
73.8,44.9118
73.85,44.40155
73.9,44.31039
73.95,44.09484
74,43.87782
74.05,44.07504
74.1,44.09314
74.15,44.14886
74.2,44.17402
74.25,44.2512
74.3,44.37414
74.35,44.39141
74.4,44.33078
74.45,44.27749
74.5,44.22902
74.55,43.90181
74.6,43.42609
74.65,43.08486
74.7,42.82084
74.75,42.76676
74.8,42.83785
74.85,42.42587
74.9,42.30054
74.95,42.66003
75,42.94319
75.05,43.22356
75.1,43.29583
75.15,43.18671
75.2,43.17377
75.25,42.99327
75.3,42.92157
75.35,43.03341
75.4,43.11187
75.45,43.08712
75.5,42.88688
75.55,42.61676
75.6,42.03114
75.65,41.97975
75.7,42.29305
75.75,42.4588
75.8,42.55832
75.85,42.4113
75.9,42.05487
75.95,41.78402
76,41.79416
76.05,41.7187
76.1,41.8569
76.15,42.08456
76.2,41.74971
76.25,41.18385
76.3,40.48568
76.35,39.88709
76.4,39.66008
76.45,40.05255
76.5,40.73172
76.55,41.21896
76.6,41.13813
76.65,40.53413
76.7,40.40441
76.75,40.30764
76.8,40.32964
76.85,39.9548
76.9,39.49832
76.95,39.26849
77,39.3197
77.05,39.50513
77.1,39.33834
77.15,39.08075
77.2,38.57993
77.25,38.3637
77.3,38.36574
77.35,38.32152
77.4,38.26112
77.45,38.28619
77.5,38.34153
77.55,38.28989
77.6,38.23378
77.65,38.12353
77.7,38.44743
77.75,38.32131
77.8,38.31463
77.85,38.06153
77.9,37.8132
77.95,37.52655
78,37.41234
78.05,37.68341
78.1,37.70539
78.15,37.12711
78.2,36.7639
78.25,36.78085
78.3,36.73765
78.35,36.86259
78.4,37.09189
78.45,37.14863
78.5,36.67066
78.55,36.42937
78.6,36.21811
78.65,35.8741
78.7,35.3568
78.75,34.90298
78.8,34.88159
78.85,35.10907
78.9,35.47735
78.95,35.68434
79,35.64466
79.05,35.3133
79.1,34.93805
79.15,34.85926
79.2,34.86451
79.25,34.51889
79.3,34.24514
79.35,34.15073
79.4,34.39577
79.45,34.45179
79.5,34.52598
79.55,34.65665
79.6,34.19461
79.65,33.899
79.7,33.75862
79.75,33.36366
79.8,32.81096
79.85,32.36975
79.9,31.76832
79.95,31.44039
80,31.67172
80.05,32.26886
80.1,32.59752
80.15,32.83355
80.2,32.9268
80.25,32.71062
80.3,32.42632
80.35,32.1034
80.4,32.0167
80.45,32.07257
80.5,32.08208
80.55,31.83801
80.6,31.62077
80.65,31.62621
80.7,31.73842
80.75,31.84841
80.8,32.05595
80.85,31.90981
80.9,31.50599
80.95,31.3064
81,31.78359
81.05,31.91826
81.1,31.85822
81.15,31.69751
81.2,31.18052
81.25,30.62386
81.3,30.45515
81.35,30.60112
81.4,30.71461
81.45,31.15943
81.5,31.44756
81.55,31.2842
81.6,30.80204
81.65,30.11949
81.7,29.71504
81.75,29.66516
81.8,30.07423
81.85,30.46145
81.9,30.48614
81.95,30.60544
82,30.66611
82.05,30.38491
82.1,30.03989
82.15,29.49847
82.2,28.93582
82.25,28.51022
82.3,28.51247
82.35,28.62086
82.4,28.36694
82.45,28.4713
82.5,28.57063
82.55,28.4398
82.6,28.40645
82.65,28.52012
82.7,28.18278
82.75,27.71416
82.8,27.59893
82.85,27.65105
82.9,27.54412
82.95,27.30967
83,27.1932
83.05,27.24702
83.1,27.57669
83.15,28.20748
83.2,28.81632
83.25,28.64637
83.3,27.42099
83.35,26.11382
83.4,25.52848
83.45,25.54986
83.5,25.81927
83.55,25.88575
83.6,25.78662
83.65,25.55499
83.7,25.26154
83.75,25.18496
83.8,25.16525
83.85,25.07253
83.9,25.08531
83.95,25.34776
84,25.68162
84.05,25.28702
84.1,24.67883
84.15,24.41789
84.2,24.22163
84.25,23.97159
84.3,24.01941
84.35,24.34802
84.4,23.89065
84.45,23.60647
84.5,23.35586
84.55,23.52178
84.6,24.24531
84.65,24.6527
84.7,24.29247
84.75,23.69195
84.8,22.85225
84.85,21.97756
84.9,22.1131
84.95,22.43657
85,22.20878
85.05,22.16968
85.1,22.56175
85.15,22.77535
85.2,22.76039
85.25,22.60461
85.3,22.03649
85.35,21.54363
85.4,21.37056
85.45,21.74257
85.5,21.70627
85.55,21.28849
85.6,20.6736
85.65,20.59446
85.7,20.85909
85.75,20.86921
85.8,20.71193
85.85,20.2172
85.9,19.85324
85.95,19.70729
86,19.99843
86.05,20.00042
86.1,19.70697
86.15,19.4672
86.2,19.5221
86.25,19.50613
86.3,19.28358
86.35,18.72718
86.4,18.42462
86.45,18.16593
86.5,18.08441
86.55,18.34375
86.6,18.18715
86.65,17.46276
86.7,16.70366
86.75,16.60865
86.8,16.97259
86.85,17.32331
86.9,17.32864
86.95,16.97182
87,16.65747
87.05,16.85162
87.1,16.97762
87.15,17.03237
87.2,16.83502
87.25,16.60178
87.3,16.54575
87.35,16.50875
87.4,16.48249
87.45,16.20443
87.5,15.91276
87.55,15.9786
87.6,16.10042
87.65,16.13867
87.7,15.79527
87.75,15.788
87.8,15.86195
87.85,15.89567
87.9,15.85713
87.95,15.47505
88,14.95158
88.05,14.49743
88.1,13.87974
88.15,13.33161
88.2,13.42354
88.25,13.84384
88.3,13.91084
88.35,14.56102
88.4,14.9865
88.45,14.65712
88.5,14.09956
88.55,13.79533
88.6,13.38682
88.65,12.72545
88.7,12.69134
88.75,12.78906
88.8,12.67011
88.85,12.56695
88.9,12.54439
88.95,12.56591
89,12.40156
89.05,12.23468
89.1,12.07097
89.15,11.73485
89.2,11.34124
89.25,11.35351
89.3,12.14266
89.35,12.43793
89.4,12.24016
89.45,11.75115
89.5,11.34159
89.55,11.24331
89.6,11.31559
89.65,11.03449
89.7,10.30035
89.75,9.791139
89.8,9.474794
89.85,9.41552
89.9,9.334619
89.95,9.23531
90,9.1345
90.05,9.184318
90.1,9.291245
90.15,9.286478
90.2,9.07008
90.25,8.884895
90.3,8.922831
90.35,8.908384
90.4,8.657746
90.45,8.449686
90.5,8.33719
90.55,8.630244
90.6,8.979546
90.65,9.141619
90.7,9.112206
90.75,9.112408
90.8,9.030704
90.85,8.792029
90.9,8.322976
90.95,7.273794
91,6.377689
91.05,6.343335
91.1,6.754272
91.15,7.350839
91.2,7.774208
91.25,7.705227
91.3,7.375896
91.35,7.162203
91.4,7.057095
91.45,7.073051
91.5,7.178464
91.55,7.012563
91.6,6.796026
91.65,6.45111
91.7,6.230052
91.75,6.237749
91.8,6.399385
91.85,6.424428
91.9,6.122246
91.95,5.890934
92,5.501569
92.05,5.225948
92.1,4.935053
92.15,4.727983
92.2,4.543819
92.25,4.241027
92.3,4.289987
92.35,4.420077
92.4,4.361645
92.45,4.350969
92.5,4.183501
92.55,3.881113
92.6,3.561278
92.65,3.721937
92.7,3.583621
92.75,3.530194
92.8,3.589736
92.85,3.641278
92.9,3.567703
92.95,3.355966
93,3.191133
93.05,2.99291
93.1,3.182748
93.15,3.424073
93.2,3.3666
93.25,3.302103
93.3,3.062299
93.35,3.001941
93.4,3.029346
93.45,2.914847
93.5,2.769389
93.55,2.643837
93.6,2.773794
93.65,2.787156
93.7,2.590687
93.75,2.297514
93.8,2.218544
93.85,2.211252
93.9,2.121312
93.95,2.091028
94,1.943327
94.05,1.676558
94.1,1.656088
94.15,1.737763
94.2,1.579988
94.25,1.247174
94.3,1.077994
94.35,1.125756
94.4,1.369388
94.45,1.5077
94.5,1.349214
94.55,0.951681
94.6,0.6821599
94.65,0.6929452
94.7,0.9902296
94.75,1.147898
94.8,0.9419572
94.85,0.7047919
94.9,0.5549238
94.95,0.5716108
95,0.771581
95.05,0.8690701
95.1,0.7823502
95.15,0.4523356
95.2,0.1169926
95.25,-6.624413E-02
95.3,-0.2589024
95.35,-0.3120901
95.4,-0.5246388
95.45,-0.4419107
95.5,-0.3362083
95.55,-0.1949756
95.6,-3.079577E-02
95.65,6.625509E-02
95.7,7.017369E-02
95.75,1.579731E-02
95.8,3.712419E-02
95.85,-0.1035912
95.9,-0.3481728
95.95,-0.6380882
96,-0.8798499
96.05,-0.858026
96.1,-0.747519
96.15,-0.5198075
96.2,-0.4246073
96.25,-0.3969454
96.3,-0.4381141
96.35,-0.4444761
96.4,-0.4830362
96.45,-0.7857137
96.5,-0.8563161
96.55,-0.9639348
96.6,-0.9871764
96.65,-1.017019
96.7,-0.7738988
96.75,-0.6962342
96.8,-0.7010438
96.85,-0.7888718
96.9,-0.9236957
96.95,-0.9253596
97,-0.870909
97.05,-0.5892146
97.1,-0.4168698
97.15,-0.4225
97.2,-0.7142303
97.25,-0.9679322
97.3,-1.080696
97.35,-1.137481
97.4,-0.9685165
97.45,-0.7476838
97.5,-0.7258365
97.55,-1.004313
97.6,-1.272754
97.65,-1.704919
97.7,-1.891255
97.75,-1.666795
97.8,-1.333072
97.85,-1.121448
97.9,-1.175441
97.95,-1.468654
98,-1.773012
98.05,-1.856515
98.1,-1.758928
98.15,-1.737435
98.2,-1.827258
98.25,-2.025052
98.3,-2.095531
98.35,-2.011917
98.4,-1.815446
98.45,-1.756844
98.5,-1.836602
98.55,-1.90484
98.6,-1.861392
98.65,-1.707343
98.7,-1.455114
98.75,-1.131621
98.8,-1.094905
98.85,-1.409875
98.9,-1.886126
98.95,-2.358632
99,-2.669469
99.05,-2.684282
99.1,-2.552359
99.15,-2.38302
99.2,-2.138537
99.25,-2.000354
99.3,-2.163366
99.35,-2.509186
99.4,-2.66882
99.45,-2.574233
99.5,-2.402943
99.55,-2.219735
99.6,-2.264869
99.65,-2.581787
99.7,-2.849513
99.75,-2.986033
99.8,-2.869035
99.85,-2.757358
99.9,-2.81342
99.95,-2.789444
100,-2.886751
100.05,-2.948313
100.1,-2.983871
100.15,-2.847134
100.2,-2.894721
100.25,-2.924164
100.3,-2.72843
100.35,-2.831694
100.4,-2.891958
100.45,-2.922344
100.5,-3.042125
100.55,-3.089826
100.6,-2.848791
100.65,-2.683182
100.7,-2.830928
100.75,-3.046139
100.8,-3.413729
100.85,-3.876408
100.9,-3.865453
100.95,-3.613232
101,-3.462467
101.05,-3.429405
101.1,-3.402626
101.15,-3.330877
101.2,-3.300559
101.25,-3.46813
101.3,-3.815967
101.35,-4.256183
101.4,-4.538199
101.45,-4.305778
101.5,-3.795821
101.55,-3.435538
101.6,-3.222423
101.65,-3.262721
101.7,-3.447073
101.75,-3.549481
101.8,-3.646363
101.85,-3.80165
101.9,-3.858211
101.95,-3.762276
102,-3.736917
102.05,-3.648858
102.1,-3.578763
102.15,-3.681462
102.2,-3.834132
102.25,-3.964552
102.3,-4.026504
102.35,-3.982707
102.4,-3.983536
102.45,-3.940568
102.5,-3.912289
102.55,-3.897563
102.6,-3.884161
102.65,-3.728567
102.7,-3.454636
102.75,-3.504596
102.8,-3.765007
102.85,-4.065595
102.9,-4.255011
102.95,-4.352261
103,-4.359004
103.05,-4.301079
103.1,-4.388498
103.15,-4.542291
103.2,-4.565837
103.25,-4.586377
103.3,-4.562868
103.35,-4.585552
103.4,-4.524631
103.45,-4.422102
103.5,-4.447467
103.55,-4.495414
103.6,-4.647282
103.65,-4.647882
103.7,-4.520443
103.75,-4.365171
103.8,-4.302732
103.85,-4.356208
103.9,-4.443656
103.95,-4.564265
104,-4.628321
104.05,-4.621893
104.1,-4.694648
104.15,-4.749501
104.2,-4.670226
104.25,-4.447369
104.3,-4.533919
104.35,-4.615949
104.4,-4.829563
104.45,-4.95641
104.5,-5.02454
104.55,-5.053383
104.6,-5.048456
104.65,-5.074572
104.7,-5.034407
104.75,-5.053874
104.8,-4.817718
104.85,-4.634129
104.9,-4.673839
104.95,-4.816954
105,-4.902684
105.05,-4.816032
105.1,-4.671232
105.15,-4.646687
105.2,-4.905355
105.25,-5.159868
105.3,-5.070161
105.35,-4.803627
105.4,-4.541741
105.45,-4.530602
105.5,-4.690021
105.55,-4.841157
105.6,-4.88833
105.65,-4.774174
105.7,-4.667949
105.75,-4.604984
105.8,-4.754908
105.85,-4.826201
105.9,-4.513614
105.95,-4.146595
106,-3.781997
106.05,-3.594702
106.1,-3.643263
106.15,-3.982537
106.2,-4.259875
106.25,-4.448264
106.3,-4.753025
106.35,-4.902973
106.4,-4.762104
106.45,-4.793083
106.5,-4.895245
106.55,-4.964894
106.6,-5.014322
106.65,-4.991313
106.7,-4.703024
106.75,-4.457561
106.8,-4.562002
106.85,-4.713834
106.9,-4.851495
106.95,-4.894602
107,-4.948876
107.05,-4.957335
107.1,-4.990723
107.15,-5.155
107.2,-5.224705
107.25,-5.059589
107.3,-4.644769
107.35,-4.379069
107.4,-4.429644
107.45,-4.778488
107.5,-5.205388
107.55,-5.548759
107.6,-5.614031
107.65,-5.319602
107.7,-5.037032
107.75,-4.946774
107.8,-5.005273
107.85,-5.049295
107.9,-5.075908
107.95,-4.670636
108,-4.222665
108.05,-4.177272
108.1,-4.331252
108.15,-4.942479
108.2,-5.455084
108.25,-5.747346
108.3,-5.637257
108.35,-5.256335
108.4,-5.031984
108.45,-4.932483
108.5,-5.098395
108.55,-5.425081
108.6,-5.524661
108.65,-5.493726
108.7,-5.332875
108.75,-5.213393
108.8,-5.162009
108.85,-5.187519
108.9,-5.385675
108.95,-5.205512
109,-4.763686
109.05,-4.458554
109.1,-4.17471
109.15,-4.204008
109.2,-4.379465
109.25,-4.593033
109.3,-4.601819
109.35,-4.566428
109.4,-4.579958
109.45,-4.428349
109.5,-4.257587
109.55,-3.987954
109.6,-3.647507
109.65,-3.58691
109.7,-3.832715
109.75,-4.086171
109.8,-4.451461
109.85,-4.851851
109.9,-4.958934
109.95,-4.593671
110,-4.309841
110.05,-4.26333
110.1,-4.373919
110.15,-4.740899
110.2,-5.323961
110.25,-5.555144
110.3,-5.038735
110.35,-4.65959
110.4,-4.48024
110.45,-4.473102
110.5,-4.574117
110.55,-4.544706
110.6,-4.292118
110.65,-3.936371
110.7,-3.691186
110.75,-3.75815
110.8,-4.002172
110.85,-4.518466
110.9,-4.665515
110.95,-4.163736
111,-3.744706
111.05,-3.50904
111.1,-3.747832
111.15,-4.3887
111.2,-5.193072
111.25,-5.466913
111.3,-5.13414
111.35,-4.981106
111.4,-4.636313
111.45,-4.414729
111.5,-4.274759
111.55,-4.070893
111.6,-3.907867
111.65,-3.438942
111.7,-2.666203
111.75,-0.8398699
111.8,1.87866
111.85,4.983418
111.9,8.604148
111.95,12.27963
112,14.77672
112.05,18.87202
112.1,25.44
112.15,34.88473
112.2,46.5481
112.25,59.17279
112.3,72.86761
112.35,87.86356
112.4,102.3339
112.45,113.6228
112.5,119.355
112.55,121.8742
112.6,127.0901
112.65,138.4503
112.7,151.2609
112.75,158.7977
112.8,162.4923
112.85,164.7737
112.9,165.6986
112.95,168.3958
113,174.1199
113.05,175.8202
113.1,169.3963
113.15,160.9534
113.2,153.0937
113.25,145.6484
113.3,139.1943
113.35,134.2715
113.4,129.5842
113.45,121.55
113.5,112.7695
113.55,107.6695
113.6,102.9463
113.65,96.97822
113.7,93.1058
113.75,88.84933
113.8,82.22759
113.85,74.90524
113.9,69.52345
113.95,64.44768
114,60.04121
114.05,57.35927
114.1,52.40326
114.15,45.41758
114.2,38.15137
114.25,32.60596
114.3,29.5779
114.35,29.42399
114.4,31.66459
114.45,33.34576
114.5,31.95105
114.55,27.65649
114.6,23.5008
114.65,20.89642
114.7,20.30075
114.75,21.36629
114.8,21.65625
114.85,20.42895
114.9,17.68081
114.95,14.22478
115,11.23798
115.05,9.690445
115.1,9.213349
115.15,8.58825
115.2,7.905222
115.25,7.092
115.3,5.514271
115.35,4.816133
115.4,4.974521
115.45,4.787262
115.5,3.825889
115.55,3.017616
115.6,2.433388
115.65,1.54779
115.7,1.279758
115.75,1.722252
115.8,1.968208
115.85,1.580146
115.9,0.6311446
115.95,-0.7634227
116,-1.724845
116.05,-1.996545
116.1,-1.703887
116.15,-1.475798
116.2,-1.708299
116.25,-2.445547
116.3,-3.104383
116.35,-2.992522
116.4,-2.422914
116.45,-1.968558
116.5,-1.77561
116.55,-2.316688
116.6,-3.203443
116.65,-4.068083
116.7,-4.244504
116.75,-3.379933
116.8,-2.58915
116.85,-2.334255
116.9,-2.567754
116.95,-3.392544
117,-4.541685
117.05,-5.280059
117.1,-4.942692
117.15,-4.152207
117.2,-3.54504
117.25,-3.314599
117.3,-3.7293
117.35,-4.565838
117.4,-5.511854
117.45,-5.765547
117.5,-5.706046
117.55,-5.681588
117.6,-5.850657
117.65,-6.128965
117.7,-6.181977
117.75,-6.024475
117.8,-5.787241
117.85,-5.805949
117.9,-5.72692
117.95,-5.389253
118,-5.206045
118.05,-5.089465
118.1,-5.385958
118.15,-6.010309
118.2,-6.413347
118.25,-6.323934
118.3,-6.133937
118.35,-6.121585
118.4,-6.148099
118.45,-6.306647
118.5,-6.445009
118.55,-6.431399
118.6,-6.351313
118.65,-6.440917
118.7,-6.564448
118.75,-6.741531
118.8,-6.933332
118.85,-6.69705
118.9,-6.176811
118.95,-5.747095
119,-5.779109
119.05,-6.028945
119.1,-6.375855
119.15,-6.661813
119.2,-6.698252
119.25,-6.625462
119.3,-6.6298
119.35,-6.603415
119.4,-6.403226
119.45,-6.089222
119.5,-5.801971
119.55,-5.82781
119.6,-6.066701
119.65,-6.20857
119.7,-6.312551
119.75,-6.273801
119.8,-6.33069
119.85,-6.46859
119.9,-6.526303
119.95,-6.477612
120,-6.359063
120.05,-6.487942
120.1,-6.699838
120.15,-6.723072
120.2,-6.559017
120.25,-6.378832
120.3,-6.337625
120.35,-6.529465
120.4,-6.853723
120.45,-7.106402
120.5,-7.144587
120.55,-7.104413
120.6,-6.944642
120.65,-6.660258
120.7,-6.458978
120.75,-6.38236
120.8,-6.662917
120.85,-6.878292
120.9,-7.094492
120.95,-7.186274
121,-7.185229
121.05,-7.121933
121.1,-7.053968
121.15,-7.052658
121.2,-7.05925
121.25,-7.149891
121.3,-7.136678
121.35,-7.058228
121.4,-6.922869
121.45,-6.810763
121.5,-6.826651
121.55,-6.884272
121.6,-6.97949
121.65,-7.091232
121.7,-7.149342
121.75,-7.198825
121.8,-7.222978
121.85,-7.230444
121.9,-7.195376
121.95,-7.227901
122,-7.221498
122.05,-7.105091
122.1,-7.045297
122.15,-7.066496
122.2,-7.141242
122.25,-7.223746
122.3,-7.292234
122.35,-7.275318
122.4,-7.244886
122.45,-7.23685
122.5,-7.157962
122.55,-7.142947
122.6,-7.134283
122.65,-7.111899
122.7,-7.134149
122.75,-7.076408
122.8,-6.960271
122.85,-6.931233
122.9,-7.054586
122.95,-7.063138
123,-7.012053
123.05,-7.111631
123.1,-7.108591
123.15,-7.14935
123.2,-7.270952
123.25,-7.339341
123.3,-7.284554
123.35,-7.106577
123.4,-7.038597
123.45,-6.93005
123.5,-6.870118
123.55,-6.969825
123.6,-7.11429
123.65,-7.217784
123.7,-7.202028
123.75,-7.187995
123.8,-7.206614
123.85,-7.205254
123.9,-7.239109
123.95,-7.30754
124,-7.320042
124.05,-7.321088
124.1,-7.231382
124.15,-7.066041
124.2,-6.825047
124.25,-6.647539
124.3,-6.676137
124.35,-6.873514
124.4,-6.989465
124.45,-6.873386
124.5,-6.777739
124.55,-6.788842
124.6,-6.937408
124.65,-7.135162
124.7,-7.084927
124.75,-6.808305
124.8,-6.601294
124.85,-6.666331
124.9,-6.820566
124.95,-7.008107
125,-7.218181
125.05,-7.334616
125.1,-7.382089
125.15,-7.363181
125.2,-7.374262
125.25,-7.328394
125.3,-7.263247
125.35,-7.285494
125.4,-7.345444
125.45,-7.318191
125.5,-7.237088
125.55,-7.202813
125.6,-7.254593
125.65,-7.307079
125.7,-7.463117
125.75,-7.601751
125.8,-7.581033
125.85,-7.4564
125.9,-7.335581
125.95,-7.283103
126,-7.316981
126.05,-7.356414
126.1,-7.397037
126.15,-7.379272
126.2,-7.360497
126.25,-7.324212
126.3,-7.334631
126.35,-7.446538
126.4,-7.494987
126.45,-7.46474
126.5,-7.410966
126.55,-7.363638
126.6,-7.302333
126.65,-7.350716
126.7,-7.337894
126.75,-7.3154
126.8,-7.133865
126.85,-7.028108
126.9,-6.986947
126.95,-7.102642
127,-7.272697
127.05,-7.368178
127.1,-7.390225
127.15,-7.431082
127.2,-7.52131
127.25,-7.51464
127.3,-7.609969
127.35,-7.614666
127.4,-7.614727
127.45,-7.501889
127.5,-7.491237
127.55,-7.528327
127.6,-7.48951
127.65,-7.509292
127.7,-7.502964
127.75,-7.401765
127.8,-7.399071
127.85,-7.435219
127.9,-7.490101
127.95,-7.484815
128,-7.437448
128.05,-7.411526
128.1,-7.445012
128.15,-7.491126
128.2,-7.547669
128.25,-7.625803
128.3,-7.675186
128.35,-7.675186
128.4,-7.675186
128.45,-7.675186
128.5,-7.675186
128.55,-7.675186
128.6,-7.675186
128.65,-7.675186
128.7,-7.675186
128.75,-7.675186
128.8,-7.675186
128.85,-7.675186
128.9,-7.675186
128.95,-7.675186
129,-7.675186
129.05,-7.675186
129.1,-7.675186
129.15,-7.675186
129.2,-7.675186
129.25,-7.675186
129.3,-7.675186
129.35,-7.675186
129.4,-7.675186
129.45,-7.675186
129.5,-7.675186
129.55,-7.675186
129.6,-7.675186
129.65,-7.675186
129.7,-7.675186
129.75,-7.675186
129.8,-7.675186
129.85,-7.675186
129.9,-7.675186
129.95,-7.675186
130,-7.675186
130.05,-7.675186
130.1,-7.675186
130.15,-7.675186
130.2,-7.675186
130.25,-7.675186
130.3,-7.675186
130.35,-7.675186
130.4,-7.675186
130.45,-7.675186
130.5,-7.675186
130.55,-7.675186
130.6,-7.675186
130.65,-7.675186
130.7,-7.675186
130.75,-7.675186
130.8,-7.675186
130.85,-7.675186
130.9,-7.675186
130.95,-7.675186
131,-7.675186
131.05,-7.675186
131.1,-7.675186
131.15,-7.675186
131.2,-7.675186
131.25,-7.675186
131.3,-7.675186
131.35,-7.675186
131.4,-7.675186
131.45,-7.675186
131.5,-7.675186
131.55,-7.675186
131.6,-7.675186
131.65,-7.675186
131.7,-7.675186
131.75,-7.675186
131.8,-7.675186
131.85,-7.675186
131.9,-7.675186
131.95,-7.675186
132,-7.675186
132.05,-7.675186
132.1,-7.675186
132.15,-7.675186
132.2,-7.675186
132.25,-7.675186
132.3,-7.675186
132.35,-7.675186
132.4,-7.675186
132.45,-7.675186
132.5,-7.675186
132.55,-7.675186
132.6,-7.675186
132.65,-7.675186
132.7,-7.675186
132.75,-7.675186
132.8,-7.675186
132.85,-7.675186
132.9,-7.675186
132.95,-7.675186
133,-7.675186
133.05,-7.675186
133.1,-7.675186
133.15,-7.675186
133.2,-7.675186
133.25,-7.675186
133.3,-7.675186
133.35,-7.675186
133.4,-7.675186
133.45,-7.675186
133.5,-7.675186
133.55,-7.675186
133.6,-7.675186
133.65,-7.675186
133.7,-7.675186
133.75,-7.675186
133.8,-7.675186
133.85,-7.675186
133.9,-7.675186
133.95,-7.675186
134,-7.675186
134.05,-7.675186
134.1,-7.675186
134.15,-7.675186
134.2,-7.675186
134.25,-7.675186
134.3,-7.675186
134.35,-7.675186
134.4,-7.675186
134.45,-7.675186
134.5,-7.675186
134.55,-7.675186
134.6,-7.675186
134.65,-7.675186
134.7,-7.675186
134.75,-7.675186
134.8,-7.675186
134.85,-7.675186
134.9,-7.675186
134.95,-7.675186
135,-7.675186
135.05,-7.675186
135.1,-7.675186
135.15,-7.675186
135.2,-7.675186
135.25,-7.675186
135.3,-7.675186
135.35,-7.675186
135.4,-7.675186
135.45,-7.675186
135.5,-7.675186
135.55,-7.675186
135.6,-7.675186
135.65,-7.675186
135.7,-7.675186
135.75,-7.675186
135.8,-7.675186
135.85,-7.675186
135.9,-7.675186
135.95,-7.675186
136,-7.675186
136.05,-7.675186
136.1,-7.675186
136.15,-7.675186
136.2,-7.675186
136.25,-7.675186
136.3,-7.675186
136.35,-7.675186
136.4,-7.675186
136.45,-7.675186
136.5,-7.675186
136.55,-7.675186
136.6,-7.675186
136.65,-7.675186
136.7,-7.675186
136.75,-7.675186
136.8,-7.675186
136.85,-7.675186
136.9,-7.675186
136.95,-7.675186
137,-7.675186
137.05,-7.675186
137.1,-7.675186
137.15,-7.675186
137.2,-7.675186
137.25,-7.675186
137.3,-7.675186
137.35,-7.675186
137.4,-7.675186
137.45,-7.675186
137.5,-7.675186
137.55,-7.675186
137.6,-7.675186
137.65,-7.675186
137.7,-7.675186
137.75,-7.675186
137.8,-7.675186
137.85,-7.675186
137.9,-7.675186
137.95,-7.675186
138,-7.675186
 
Alignment,On
