Data File Name,2100 expert_High Sensitivity DNA Assay_DE13805071_2013-11-18_15-35-14.xad
Data File Path,C:\Program Files (x86)\Agilent\2100 bioanalyzer\2100 expert\data\2013-11-18
Date Created,"Monday, November 18, 2013 2:35:13 PM"
Date Last Modified,"Monday, November 18, 2013 4:45:26 PM"
Version Created,B.02.08.SI648
Version Last Modified,B.02.08.SI648
 
Assay Name,High Sensitivity DNA
Assay Path,C:\Program Files (x86)\Agilent\2100 bioanalyzer\2100 expert\assays\dsDNA
Assay Title,High Sensitivity DNA Assay
Assay Version,1.03
 
Number of Samples Run,11
 
Sample Name,CC1_H3K27ac_ChIP
Number of Events,2121
 
Time,Value
32,1.744915E-03
32.05,2.215851E-02
32.1,-4.865056E-03
32.15,-6.883891E-02
32.2,-1.291144E-02
32.25,1.547692E-02
32.3,8.343059E-02
32.35,0.172542
32.4,0.1455056
32.45,0.1307104
32.5,9.491289E-02
32.55,4.754061E-02
32.6,9.058946E-03
32.65,4.676385E-02
32.7,0.1241928
32.75,0.1212377
32.8,4.987603E-02
32.85,-9.411378E-02
32.9,-0.2135313
32.95,-0.2734188
33,-0.1653283
33.05,5.339917E-02
33.1,0.2014795
33.15,0.2027022
33.2,9.585351E-02
33.25,4.616578E-02
33.3,0.1015416
33.35,0.1308397
33.4,0.2298528
33.45,0.2926657
33.5,0.2940023
33.55,0.2437471
33.6,0.2028482
33.65,0.1828604
33.7,-5.010851E-02
33.75,-0.3197547
33.8,-0.4916615
33.85,-0.492166
33.9,-0.4312634
33.95,-0.3946393
34,-0.3011696
34.05,-0.2320254
34.1,-0.1646255
34.15,1.04136E-03
34.2,4.509505E-02
34.25,6.799698E-02
34.3,-1.643359E-02
34.35,-5.809462E-02
34.4,1.852354E-03
34.45,0.1014778
34.5,0.2465677
34.55,0.3323722
34.6,0.3037004
34.65,0.1906188
34.7,1.394599E-02
34.75,-0.154261
34.8,-0.2848393
34.85,-0.3486088
34.9,-0.3672822
34.95,-0.3112046
35,-0.2127555
35.05,-0.152841
35.1,-8.758154E-02
35.15,-1.253538E-02
35.2,6.520881E-02
35.25,0.167633
35.3,0.2272489
35.35,0.2635703
35.4,0.2071164
35.45,6.760655E-02
35.5,-3.173543E-02
35.55,-0.1115037
35.6,-0.1155618
35.65,-0.1511024
35.7,-0.2101513
35.75,-0.1218039
35.8,-2.969922E-02
35.85,3.965333E-02
35.9,0.1108817
35.95,0.1561724
36,0.105702
36.05,-1.014157E-02
36.1,-0.1249043
36.15,-0.1909041
36.2,-0.2130546
36.25,-0.1858008
36.3,-0.1207962
36.35,-5.320239E-02
36.4,-7.458512E-02
36.45,-0.1396647
36.5,-0.1830089
36.55,-0.1027931
36.6,-6.100887E-02
36.65,1.664392E-03
36.7,-6.233234E-03
36.75,-0.1390512
36.8,-0.1721122
36.85,-9.339318E-02
36.9,-1.905278E-02
36.95,-0.1818081
37,-0.3259821
37.05,-0.3138529
37.1,-0.1475126
37.15,0.1493897
37.2,0.3362611
37.25,0.3057941
37.3,0.1075135
37.35,-0.1386851
37.4,-0.2807535
37.45,-0.3006734
37.5,-0.218617
37.55,-8.146272E-02
37.6,0.0990107
37.65,0.2596304
37.7,0.3143767
37.75,0.2517664
37.8,0.1234398
37.85,-7.393999E-02
37.9,-0.1698831
37.95,-0.1253957
38,-7.968962E-02
38.05,-9.899239E-02
38.1,-0.166738
38.15,-0.2771119
38.2,-0.3251395
38.25,-0.2860527
38.3,-0.1554573
38.35,-7.265193E-02
38.4,-0.1362737
38.45,-0.2172087
38.5,-0.2348903
38.55,-0.2040831
38.6,-0.1144796
38.65,-3.141064E-02
38.7,-1.123401E-02
38.75,-4.647216E-02
38.8,-8.413758E-02
38.85,0.1517369
38.9,0.441165
38.95,0.6310025
39,0.6875476
39.05,0.5649126
39.1,0.3654952
39.15,0.2421281
39.2,0.2481164
39.25,0.3302086
39.3,0.3117187
39.35,0.2426771
39.4,0.1448821
39.45,7.044319E-02
39.5,8.509748E-02
39.55,7.226162E-02
39.6,3.098455E-02
39.65,5.610857E-02
39.7,0.1082214
39.75,0.1525385
39.8,0.1864031
39.85,0.1981868
39.9,0.200343
39.95,0.1944713
40,0.2747073
40.05,0.3487424
40.1,0.3826011
40.15,0.3532075
40.2,0.2750132
40.25,0.2121407
40.3,0.1730427
40.35,0.1311018
40.4,0.2306907
40.45,0.3853684
40.5,0.5771621
40.55,0.7446012
40.6,0.771381
40.65,0.7281886
40.7,0.543152
40.75,0.4666237
40.8,0.3756227
40.85,0.2694762
40.9,0.2949198
40.95,0.3200907
41,0.2743874
41.05,0.2601559
41.1,0.3017139
41.15,0.3573851
41.2,0.3354798
41.25,0.2888696
41.3,0.1498805
41.35,8.270422E-02
41.4,0.1415309
41.45,0.2995276
41.5,0.4046963
41.55,0.5111365
41.6,0.5321791
41.65,0.5229332
41.7,0.5721157
41.75,0.6846311
41.8,0.7030772
41.85,0.5996946
41.9,0.5092151
41.95,0.4392592
42,0.3934471
42.05,0.4171212
42.1,0.553147
42.15,0.7152382
42.2,0.8153136
42.25,0.8392486
42.3,0.7011201
42.35,0.4928038
42.4,0.4571981
42.45,0.7705742
42.5,1.613384
42.55,3.370905
42.6,7.212307
42.65,14.23769
42.7,25.83592
42.75,42.93208
42.8,65.71021
42.85,91.82847
42.9,116.9867
42.95,136.6104
43,145.6976
43.05,141.4577
43.1,125.3019
43.15,101.1393
43.2,74.6804
43.25,50.1946
43.3,31.01714
43.35,18.17071
43.4,10.63562
43.45,6.833572
43.5,5.099095
43.55,4.306919
43.6,3.894949
43.65,3.451795
43.7,3.289321
43.75,3.240955
43.8,3.232419
43.85,3.096847
43.9,2.914417
43.95,2.731332
44,2.59567
44.05,2.436166
44.1,2.337643
44.15,2.312418
44.2,2.298762
44.25,2.223867
44.3,2.05651
44.35,1.983485
44.4,1.848451
44.45,1.684735
44.5,1.696276
44.55,1.78397
44.6,1.82334
44.65,1.789122
44.7,1.832089
44.75,1.990838
44.8,1.971505
44.85,1.939475
44.9,1.849763
44.95,1.793777
45,1.876334
45.05,1.926491
45.1,2.134276
45.15,2.188883
45.2,2.136135
45.25,2.255318
45.3,2.411903
45.35,2.567882
45.4,2.671795
45.45,2.555031
45.5,2.516649
45.55,2.428344
45.6,2.493497
45.65,2.640066
45.7,2.771618
45.75,2.85962
45.8,2.865544
45.85,2.828917
45.9,2.834363
45.95,2.824376
46,2.872482
46.05,3.040658
46.1,3.212267
46.15,3.382025
46.2,3.52679
46.25,3.601673
46.3,3.60156
46.35,3.663325
46.4,3.853167
46.45,4.019099
46.5,4.145024
46.55,4.257412
46.6,4.353463
46.65,4.406004
46.7,4.485695
46.75,4.596058
46.8,4.684125
46.85,4.775236
46.9,4.974225
46.95,5.11401
47,5.216041
47.05,5.298029
47.1,5.452316
47.15,5.619006
47.2,5.79278
47.25,5.992829
47.3,6.213317
47.35,6.266688
47.4,6.192629
47.45,6.173946
47.5,6.254163
47.55,6.229595
47.6,6.464281
47.65,6.587848
47.7,6.884282
47.75,7.137584
47.8,7.420307
47.85,7.588374
47.9,7.642653
47.95,7.78836
48,8.01001
48.05,8.265995
48.1,8.507817
48.15,8.649158
48.2,8.807354
48.25,8.87982
48.3,9.032548
48.35,9.254675
48.4,9.476416
48.45,9.667899
48.5,9.914898
48.55,10.27788
48.6,10.55599
48.65,10.68373
48.7,10.78469
48.75,10.89765
48.8,10.96627
48.85,11.12028
48.9,11.41728
48.95,11.7816
49,12.11785
49.05,12.32749
49.1,12.58672
49.15,12.76871
49.2,12.93492
49.25,13.09617
49.3,13.43911
49.35,13.70228
49.4,13.80847
49.45,13.77515
49.5,14.00122
49.55,14.12068
49.6,14.51456
49.65,14.85923
49.7,15.18023
49.75,15.28628
49.8,15.48053
49.85,15.80897
49.9,16.23865
49.95,16.56027
50,16.98204
50.05,17.14911
50.1,17.36537
50.15,17.45619
50.2,17.58925
50.25,17.78166
50.3,18.09964
50.35,18.54465
50.4,18.92652
50.45,19.15487
50.5,19.32975
50.55,19.47976
50.6,19.73924
50.65,20.10939
50.7,20.42071
50.75,20.68848
50.8,21.00949
50.85,21.3264
50.9,21.73185
50.95,22.25856
51,22.80974
51.05,23.17281
51.1,23.46832
51.15,23.76969
51.2,23.9367
51.25,24.16538
51.3,24.54209
51.35,24.96188
51.4,25.45093
51.45,25.79725
51.5,25.94234
51.55,26.09746
51.6,26.47087
51.65,26.7072
51.7,26.97636
51.75,27.40099
51.8,27.833
51.85,28.09893
51.9,28.38483
51.95,29.2191
52,29.605
52.05,29.64477
52.1,29.74852
52.15,30.01806
52.2,30.40251
52.25,30.97568
52.3,31.6238
52.35,32.39887
52.4,32.66812
52.45,32.92829
52.5,32.97581
52.55,33.25566
52.6,33.74665
52.65,34.35296
52.7,34.9946
52.75,35.48479
52.8,35.81559
52.85,35.88041
52.9,35.85432
52.95,36.18485
53,36.55978
53.05,37.03122
53.1,37.53757
53.15,38.0268
53.2,38.51421
53.25,39.01856
53.3,39.63671
53.35,39.97815
53.4,40.29792
53.45,40.64772
53.5,40.97591
53.55,41.31023
53.6,41.91866
53.65,42.60366
53.7,43.05896
53.75,43.45788
53.8,44.16985
53.85,44.66951
53.9,45.09036
53.95,45.50669
54,45.66037
54.05,45.69152
54.1,45.87537
54.15,46.1222
54.2,46.76625
54.25,47.37386
54.3,48.00201
54.35,48.71344
54.4,48.90845
54.45,49.19379
54.5,49.4709
54.55,50.00061
54.6,50.73035
54.65,51.23449
54.7,51.97068
54.75,52.47376
54.8,52.61665
54.85,53.16467
54.9,53.67851
54.95,54.17808
55,54.60545
55.05,55.23091
55.1,55.8046
55.15,55.99718
55.2,56.31452
55.25,56.77277
55.3,57.14172
55.35,57.66845
55.4,58.28557
55.45,58.94086
55.5,59.48706
55.55,59.8985
55.6,60.22709
55.65,60.60188
55.7,61.07935
55.75,61.61439
55.8,62.26273
55.85,62.86975
55.9,63.30785
55.95,63.4199
56,63.6083
56.05,63.99519
56.1,64.68362
56.15,65.34137
56.2,66.06359
56.25,67.0439
56.3,67.69218
56.35,68.03631
56.4,68.62928
56.45,69.09929
56.5,69.60014
56.55,70.20272
56.6,70.94182
56.65,71.53767
56.7,71.43415
56.75,71.41973
56.8,71.72569
56.85,72.17174
56.9,72.96156
56.95,73.839
57,74.44266
57.05,75.0308
57.1,75.53522
57.15,76.24113
57.2,76.91719
57.25,77.57394
57.3,77.9074
57.35,78.06561
57.4,78.25639
57.45,78.43899
57.5,78.75225
57.55,79.32709
57.6,79.86884
57.65,80.339
57.7,80.71321
57.75,81.29246
57.8,81.99332
57.85,82.59212
57.9,83.48531
57.95,84.52425
58,85.78379
58.05,86.50005
58.1,86.73653
58.15,86.54865
58.2,86.65356
58.25,87.08104
58.3,88.06413
58.35,88.80752
58.4,88.70105
58.45,88.31665
58.5,88.70999
58.55,89.45113
58.6,90.28149
58.65,91.07907
58.7,91.59783
58.75,91.83025
58.8,92.11765
58.85,93.23061
58.9,94.58473
58.95,95.48032
59,96.04836
59.05,96.62154
59.1,96.49174
59.15,96.67431
59.2,97.05635
59.25,97.33273
59.3,97.63311
59.35,98.03352
59.4,98.5766
59.45,99.24445
59.5,99.8962
59.55,100.4603
59.6,100.9866
59.65,101.6952
59.7,102.3194
59.75,102.7625
59.8,103.1705
59.85,103.5409
59.9,103.6747
59.95,103.7479
60,104.2486
60.05,105.0053
60.1,105.7465
60.15,106.4817
60.2,107.3946
60.25,108.2856
60.3,109.2216
60.35,110.0121
60.4,110.6085
60.45,110.8636
60.5,111.2046
60.55,111.9759
60.6,112.6437
60.65,112.683
60.7,112.8329
60.75,112.9221
60.8,112.8083
60.85,113.7517
60.9,114.3379
60.95,114.7807
61,114.9179
61.05,115.805
61.1,116.4811
61.15,117.2913
61.2,118.0302
61.25,119.3842
61.3,119.2401
61.35,119.2243
61.4,119.3345
61.45,119.4508
61.5,119.6159
61.55,121.0961
61.6,122.0248
61.65,122.8461
61.7,123.4002
61.75,124.1579
61.8,124.8126
61.85,125.2124
61.9,125.4888
61.95,125.6106
62,125.4141
62.05,125.5926
62.1,126.0381
62.15,126.5244
62.2,127.0882
62.25,127.9887
62.3,129.0092
62.35,129.1661
62.4,128.6311
62.45,128.4014
62.5,128.9055
62.55,129.7006
62.6,131.2653
62.65,132.2152
62.7,132.1275
62.75,131.6553
62.8,131.2457
62.85,131.7494
62.9,132.4934
62.95,133.3502
63,134.4367
63.05,134.6838
63.1,134.8958
63.15,135.4809
63.2,136.0022
63.25,136.8553
63.3,137.5685
63.35,138.6284
63.4,139.6848
63.45,139.8573
63.5,139.7824
63.55,140.0186
63.6,139.4639
63.65,139.7955
63.7,140.4182
63.75,141.3155
63.8,142.1887
63.85,142.1439
63.9,142.2014
63.95,142.7197
64,143.3875
64.05,144.0612
64.1,144.811
64.15,145.5747
64.2,145.9151
64.25,146.0807
64.3,146.4698
64.35,146.9952
64.4,147.2669
64.45,147.5624
64.5,147.8466
64.55,148.0256
64.6,148.1715
64.65,148.4055
64.7,148.9594
64.75,149.5274
64.8,149.886
64.85,150.573
64.9,151.5631
64.95,152.1339
65,152.7252
65.05,153.7953
65.1,154.5904
65.15,154.8336
65.2,154.5523
65.25,153.9518
65.3,153.728
65.35,153.8753
65.4,155.1844
65.45,156.8984
65.5,157.8069
65.55,158.1799
65.6,158.1887
65.65,158.5655
65.7,159.0401
65.75,158.9299
65.8,159.5613
65.85,160.0679
65.9,160.0393
65.95,160.7643
66,161.4832
66.05,161.3467
66.1,160.9437
66.15,160.6434
66.2,160.7001
66.25,161.2718
66.3,162.2491
66.35,163.7041
66.4,164.3735
66.45,164.5758
66.5,164.5374
66.55,164.5051
66.6,164.3147
66.65,163.9739
66.7,164.0704
66.75,164.5207
66.8,164.9444
66.85,165.6325
66.9,166.3449
66.95,166.1387
67,165.2761
67.05,164.898
67.1,165.4114
67.15,166.591
67.2,167.8578
67.25,168.8169
67.3,169.2764
67.35,168.9215
67.4,169.0085
67.45,169.2988
67.5,169.4458
67.55,169.4159
67.6,169.3809
67.65,169.8175
67.7,171.3135
67.75,172.5781
67.8,173.5448
67.85,173.6517
67.9,173.6011
67.95,172.5308
68,171.3786
68.05,171.4637
68.1,171.8586
68.15,171.4081
68.2,171.9746
68.25,173.1798
68.3,174.0007
68.35,175.1553
68.4,176.5067
68.45,177.2529
68.5,176.8719
68.55,175.8503
68.6,175.2301
68.65,175.4573
68.7,176.1797
68.75,176.8053
68.8,176.6541
68.85,176.4695
68.9,176.6968
68.95,177.1738
69,178.5308
69.05,179.653
69.1,180.0131
69.15,180.619
69.2,181.0393
69.25,181.2497
69.3,181.1847
69.35,181.3389
69.4,181.5719
69.45,181.8705
69.5,182.7742
69.55,183.3756
69.6,183.5518
69.65,184.0685
69.7,184.1734
69.75,183.7808
69.8,183.638
69.85,184.0993
69.9,184.2684
69.95,184.0798
70,183.3684
70.05,183.1851
70.1,183.0997
70.15,183.9775
70.2,185.8298
70.25,187.3308
70.3,188.0911
70.35,187.8136
70.4,187.9373
70.45,187.5255
70.5,186.8251
70.55,186.5151
70.6,187.1019
70.65,188.3308
70.7,189.2491
70.75,189.3737
70.8,188.9962
70.85,188.2235
70.9,187.9146
70.95,187.9266
71,188.0819
71.05,187.8452
71.1,187.5002
71.15,187.7411
71.2,188.6391
71.25,189.7315
71.3,190.6426
71.35,190.3779
71.4,189.4999
71.45,189.299
71.5,189.7338
71.55,190.3582
71.6,190.598
71.65,190.4609
71.7,190.0135
71.75,188.9837
71.8,189.1485
71.85,189.5986
71.9,189.8855
71.95,190.5931
72,190.3653
72.05,190.0986
72.1,190.5888
72.15,190.8242
72.2,191.3471
72.25,191.2507
72.3,191.5174
72.35,191.1862
72.4,190.0098
72.45,190.5842
72.5,191.5334
72.55,192.3396
72.6,192.2686
72.65,192.34
72.7,192.1219
72.75,191.9601
72.8,192.4678
72.85,192.8571
72.9,193.47
72.95,193.7505
73,194.0365
73.05,194.3641
73.1,194.5173
73.15,194.3415
73.2,193.9068
73.25,193.3348
73.3,193.2531
73.35,193.7059
73.4,194.6257
73.45,195.7065
73.5,196.2328
73.55,195.6844
73.6,195.2568
73.65,195.1406
73.7,195.3926
73.75,196.069
73.8,196.6978
73.85,196.4112
73.9,195.2351
73.95,194.6904
74,194.9081
74.05,195.2446
74.1,196.0398
74.15,197.3302
74.2,197.9843
74.25,197.4185
74.3,196.596
74.35,196.0398
74.4,195.6555
74.45,195.1204
74.5,195.8026
74.55,197.0866
74.6,197.9555
74.65,198.397
74.7,197.6353
74.75,197.2477
74.8,197.0289
74.85,196.6993
74.9,197.9965
74.95,198.7338
75,198.9618
75.05,198.3839
75.1,197.7689
75.15,197.8308
75.2,198.3948
75.25,199.2298
75.3,199.5536
75.35,198.9147
75.4,197.9298
75.45,197.0165
75.5,196.7986
75.55,197.175
75.6,197.4857
75.65,197.4168
75.7,197.1078
75.75,197.0528
75.8,197.6276
75.85,198.5528
75.9,199.0765
75.95,199.0724
76,198.9807
76.05,198.8634
76.1,198.6395
76.15,198.8684
76.2,199.3489
76.25,199.7379
76.3,199.9672
76.35,199.8779
76.4,199.9012
76.45,198.9843
76.5,198.0518
76.55,198.5026
76.6,199.2148
76.65,199.4949
76.7,199.7117
76.75,199.9397
76.8,199.9388
76.85,199.9103
76.9,200.0151
76.95,199.4547
77,198.4714
77.05,198.6884
77.1,200.0753
77.15,201.4886
77.2,201.6616
77.25,201.0268
77.3,199.8984
77.35,199.6837
77.4,200.1822
77.45,201.4862
77.5,201.2714
77.55,200.3524
77.6,199.4278
77.65,199.4118
77.7,199.8361
77.75,199.2677
77.8,198.3353
77.85,197.506
77.9,196.8161
77.95,197.5643
78,199.2386
78.05,200.533
78.1,200.1839
78.15,198.509
78.2,197.3722
78.25,197.3827
78.3,197.7333
78.35,198.775
78.4,200.0908
78.45,200.7762
78.5,200.9317
78.55,200.1023
78.6,199.4495
78.65,198.6414
78.7,198.1347
78.75,198.7156
78.8,199.5031
78.85,200.194
78.9,199.5669
78.95,198.757
79,198.2236
79.05,197.5462
79.1,197.3974
79.15,197.5339
79.2,198.3236
79.25,198.6114
79.3,198.2987
79.35,197.8538
79.4,196.9126
79.45,196.2638
79.5,196.1223
79.55,197.0308
79.6,197.6835
79.65,198.1152
79.7,197.7073
79.75,196.5389
79.8,194.8387
79.85,193.2279
79.9,192.9076
79.95,193.2349
80,194.2379
80.05,195.3163
80.1,195.6893
80.15,195.6629
80.2,195.5995
80.25,195.5937
80.3,195.1094
80.35,194.4674
80.4,194.0442
80.45,193.5495
80.5,193.0453
80.55,193.266
80.6,193.6986
80.65,193.6438
80.7,193.1902
80.75,192.4616
80.8,192.1613
80.85,192.1759
80.9,192.4143
80.95,192.6829
81,192.6364
81.05,192.5031
81.1,191.3728
81.15,189.853
81.2,189.5118
81.25,188.7863
81.3,188.2917
81.35,187.7786
81.4,188.3465
81.45,188.9986
81.5,189.7569
81.55,190.2475
81.6,190.4389
81.65,189.7619
81.7,187.7467
81.75,185.9617
81.8,186.0202
81.85,186.6157
81.9,187.599
81.95,188.1832
82,188.3821
82.05,188.1083
82.1,187.6144
82.15,187.3619
82.2,186.5914
82.25,185.4128
82.3,184.781
82.35,184.8485
82.4,185.6425
82.45,186.1512
82.5,186.0866
82.55,186.187
82.6,186.5811
82.65,186.4085
82.7,185.6101
82.75,185.4243
82.8,185.3879
82.85,185.2437
82.9,185.8908
82.95,186.2031
83,185.0276
83.05,183.1118
83.1,182.067
83.15,182.1077
83.2,182.1776
83.25,182.5617
83.3,183.0703
83.35,182.2527
83.4,181.8453
83.45,181.0678
83.5,180.4919
83.55,180.074
83.6,180.0701
83.65,180.0307
83.7,180.4044
83.75,180.1696
83.8,180.034
83.85,179.8071
83.9,178.4243
83.95,176.8254
84,175.5558
84.05,175.6125
84.1,176.4779
84.15,177.8423
84.2,179.3022
84.25,180.4047
84.3,180.4046
84.35,179.661
84.4,178.143
84.45,176.9529
84.5,176.1703
84.55,175.2144
84.6,174.5019
84.65,173.9916
84.7,173.6467
84.75,173.7763
84.8,174.0957
84.85,174.3301
84.9,174.0221
84.95,173.7958
85,173.5438
85.05,173.8076
85.1,175.0659
85.15,176.3469
85.2,176.6022
85.25,175.9481
85.3,174.3468
85.35,171.8059
85.4,169.9752
85.45,170.3943
85.5,172.3436
85.55,173.7069
85.6,173.6374
85.65,172.8678
85.7,171.2446
85.75,169.211
85.8,168.8401
85.85,169.8745
85.9,171.4987
85.95,171.8871
86,171.352
86.05,170.6536
86.1,169.5694
86.15,167.8018
86.2,167.3447
86.25,166.4986
86.3,165.3582
86.35,165.3481
86.4,166.3222
86.45,167.7696
86.5,168.2838
86.55,168.5664
86.6,169.1615
86.65,168.5035
86.7,167.7059
86.75,166.9721
86.8,165.6672
86.85,164.3466
86.9,163.5157
86.95,163.2904
87,163.5465
87.05,163.8634
87.1,164.8556
87.15,165.3662
87.2,164.6698
87.25,162.951
87.3,161.135
87.35,160.6462
87.4,160.8909
87.45,161.1763
87.5,161.0426
87.55,160.0591
87.6,159.244
87.65,158.4691
87.7,158.1465
87.75,157.972
87.8,157.9404
87.85,157.4917
87.9,157.2271
87.95,157.8513
88,158.2577
88.05,158.2734
88.1,157.8298
88.15,156.9624
88.2,155.5634
88.25,153.7015
88.3,152.7554
88.35,152.9919
88.4,152.983
88.45,153.0448
88.5,152.7139
88.55,152.0828
88.6,151.4492
88.65,150.8768
88.7,150.6619
88.75,150.4012
88.8,149.6505
88.85,149.4601
88.9,149.8327
88.95,149.6071
89,149.3347
89.05,149.1526
89.1,148.8874
89.15,148.1304
89.2,146.8783
89.25,145.9916
89.3,145.4934
89.35,145.1742
89.4,145.1936
89.45,145.0353
89.5,144.42
89.55,143.5116
89.6,143.1813
89.65,143.6161
89.7,143.3479
89.75,142.5731
89.8,141.2053
89.85,139.8795
89.9,138.6281
89.95,137.8615
90,138.2763
90.05,138.9044
90.1,139.3343
90.15,139.1023
90.2,138.5609
90.25,137.7426
90.3,136.5985
90.35,135.7158
90.4,135.7726
90.45,134.6167
90.5,133.7738
90.55,133.9817
90.6,134.5746
90.65,134.9585
90.7,134.756
90.75,134.2927
90.8,133.6098
90.85,132.7836
90.9,132.2287
90.95,131.6093
91,130.7046
91.05,130.3308
91.1,130.0747
91.15,130.2531
91.2,129.9218
91.25,129.8163
91.3,130.2071
91.35,130.4279
91.4,129.6264
91.45,127.8344
91.5,126.0822
91.55,124.9978
91.6,125.0624
91.65,126.0571
91.7,126.5342
91.75,126.3079
91.8,125.4283
91.85,124.4229
91.9,124.0827
91.95,124.3223
92,125.3589
92.05,125.8883
92.1,125.3968
92.15,124.6132
92.2,124.5532
92.25,124.6839
92.3,125.1725
92.35,125.1746
92.4,124.5845
92.45,122.6187
92.5,120.6077
92.55,120.1639
92.6,119.9556
92.65,119.5559
92.7,119.4674
92.75,119.1032
92.8,119.0962
92.85,118.1182
92.9,118.1813
92.95,118.3274
93,118.247
93.05,118.9121
93.1,118.5715
93.15,117.202
93.2,116.2495
93.25,116.3366
93.3,116.7206
93.35,116.5026
93.4,116.5369
93.45,116.5043
93.5,114.9585
93.55,113.9652
93.6,114.3714
93.65,114.3168
93.7,114.0532
93.75,113.7442
93.8,113.0579
93.85,112.1033
93.9,111.571
93.95,111.8228
94,111.7923
94.05,111.8433
94.1,112.0165
94.15,111.9006
94.2,112.1986
94.25,111.9218
94.3,111.6698
94.35,110.9763
94.4,109.5978
94.45,108.4854
94.5,107.8699
94.55,107.6456
94.6,107.3364
94.65,107.4452
94.7,108.3166
94.75,108.0428
94.8,107.7192
94.85,108.5149
94.9,108.633
94.95,108.1416
95,108.0474
95.05,106.7415
95.1,105.2147
95.15,104.6174
95.2,104.9551
95.25,104.1206
95.3,104.3925
95.35,105.6153
95.4,106.1912
95.45,105.9622
95.5,106.1106
95.55,106.2553
95.6,106.2856
95.65,106.2026
95.7,106.1801
95.75,104.05
95.8,101.6219
95.85,100.7121
95.9,101.3941
95.95,102.9127
96,103.8951
96.05,103.7533
96.1,102.3018
96.15,101.3105
96.2,101.7825
96.25,101.8145
96.3,101.2133
96.35,101.0625
96.4,100.6058
96.45,99.45953
96.5,98.97409
96.55,99.47366
96.6,98.454
96.65,96.31115
96.7,95.54239
96.75,95.98035
96.8,96.0053
96.85,96.97409
96.9,97.93257
96.95,97.76563
97,96.69164
97.05,95.78377
97.1,96.10537
97.15,95.41033
97.2,94.24284
97.25,93.86357
97.3,94.14974
97.35,94.57408
97.4,95.18655
97.45,94.61411
97.5,93.62844
97.55,92.18587
97.6,91.93633
97.65,92.14661
97.7,92.55831
97.75,92.15562
97.8,91.43607
97.85,90.73137
97.9,90.13865
97.95,89.18248
98,88.25655
98.05,88.37907
98.1,89.09329
98.15,89.76858
98.2,90.07213
98.25,89.48299
98.3,88.55331
98.35,87.78576
98.4,87.54381
98.45,87.8126
98.5,88.2171
98.55,88.37556
98.6,88.12556
98.65,88.23589
98.7,88.34011
98.75,87.79015
98.8,86.98466
98.85,86.4529
98.9,85.11533
98.95,83.47987
99,82.82851
99.05,83.15872
99.1,84.37031
99.15,84.46552
99.2,83.95001
99.25,83.19009
99.3,81.90116
99.35,82.12987
99.4,83.16741
99.45,83.47614
99.5,84.07731
99.55,83.98135
99.6,83.27126
99.65,80.80921
99.7,78.94396
99.75,78.57655
99.8,78.34251
99.85,79.22641
99.9,81.20933
99.95,82.51408
100,81.64894
100.05,79.771
100.1,77.9958
100.15,76.32824
100.2,75.23943
100.25,75.15958
100.3,75.5904
100.35,75.83592
100.4,75.20833
100.45,74.33359
100.5,73.96992
100.55,74.00606
100.6,74.2586
100.65,75.25179
100.7,76.09052
100.75,75.74998
100.8,75.52316
100.85,75.35942
100.9,75.20217
100.95,75.40384
101,75.33661
101.05,74.08971
101.1,71.65707
101.15,69.48526
101.2,68.51825
101.25,67.8717
101.3,68.08585
101.35,67.89381
101.4,67.6198
101.45,67.31552
101.5,67.45912
101.55,67.26286
101.6,67.48723
101.65,67.78766
101.7,67.46065
101.75,65.5756
101.8,65.21384
101.85,65.27768
101.9,65.56705
101.95,65.56317
102,64.84655
102.05,62.50552
102.1,60.11694
102.15,59.75612
102.2,61.26443
102.25,62.79879
102.3,64.79223
102.35,66.08485
102.4,65.10664
102.45,63.43224
102.5,61.84719
102.55,59.4353
102.6,56.48076
102.65,54.3822
102.7,53.64336
102.75,53.78485
102.8,54.77895
102.85,55.64157
102.9,54.91991
102.95,53.38744
103,51.56746
103.05,49.95136
103.1,49.52415
103.15,49.21297
103.2,49.26229
103.25,49.88295
103.3,50.01204
103.35,48.53719
103.4,46.70582
103.45,45.95481
103.5,45.43309
103.55,45.26534
103.6,46.68206
103.65,46.78692
103.7,44.87788
103.75,42.61545
103.8,41.80634
103.85,42.00235
103.9,41.88918
103.95,41.08006
104,39.00789
104.05,36.3147
104.1,35.07882
104.15,35.33604
104.2,35.89637
104.25,35.91091
104.3,35.17249
104.35,34.6399
104.4,34.14378
104.45,33.97719
104.5,33.98939
104.55,33.15192
104.6,32.50155
104.65,31.66817
104.7,31.24152
104.75,31.34159
104.8,30.81715
104.85,29.67798
104.9,27.98485
104.95,26.1251
105,24.10769
105.05,22.5023
105.1,22.77163
105.15,23.45307
105.2,23.31739
105.25,22.62236
105.3,21.77808
105.35,20.82323
105.4,20.17312
105.45,20.45766
105.5,20.99395
105.55,21.12852
105.6,20.6047
105.65,19.53328
105.7,18.07519
105.75,16.49597
105.8,15.66607
105.85,15.83117
105.9,16.65021
105.95,17.33721
106,17.46186
106.05,17.59999
106.1,17.02139
106.15,16.09927
106.2,15.03088
106.25,13.83064
106.3,12.81241
106.35,12.52011
106.4,12.44502
106.45,12.07641
106.5,11.93878
106.55,12.04695
106.6,11.8644
106.65,11.35772
106.7,10.47186
106.75,9.677816
106.8,8.673009
106.85,8.235598
106.9,8.934687
106.95,9.822966
107,10.13502
107.05,9.900863
107.1,9.307395
107.15,8.416214
107.2,7.521833
107.25,7.346209
107.3,7.63769
107.35,7.870402
107.4,8.134891
107.45,7.981652
107.5,7.122218
107.55,6.250304
107.6,5.931951
107.65,6.134049
107.7,6.273397
107.75,6.281878
107.8,5.967054
107.85,5.695906
107.9,6.078369
107.95,6.236148
108,6.0454
108.05,5.711456
108.1,5.208093
108.15,5.441796
108.2,5.863455
108.25,6.164019
108.3,5.67284
108.35,4.188516
108.4,3.128991
108.45,2.693416
108.5,3.367933
108.55,4.456568
108.6,4.921983
108.65,4.989801
108.7,5.015622
108.75,4.571661
108.8,4.285151
108.85,4.348095
108.9,4.240398
108.95,3.776509
109,3.119875
109.05,2.670382
109.1,2.619291
109.15,2.953305
109.2,3.508252
109.25,3.762884
109.3,3.633398
109.35,3.311668
109.4,2.969105
109.45,2.793084
109.5,2.695975
109.55,2.760368
109.6,2.914402
109.65,3.047341
109.7,3.100908
109.75,3.003983
109.8,2.981243
109.85,3.293235
109.9,3.623206
109.95,3.488942
110,3.133118
110.05,3.179707
110.1,3.092109
110.15,2.907896
110.2,2.7067
110.25,2.06859
110.3,1.157369
110.35,1.021046
110.4,2.029877
110.45,3.072052
110.5,3.339497
110.55,2.826866
110.6,1.822072
110.65,1.072569
110.7,0.7887825
110.75,1.176697
110.8,1.548304
110.85,1.518306
110.9,1.34154
110.95,1.200039
111,0.8949417
111.05,0.5364429
111.1,0.4058284
111.15,1.351692
111.2,2.497311
111.25,3.395319
111.3,3.160206
111.35,2.007761
111.4,0.536921
111.45,-0.4519082
111.5,-0.5530249
111.55,-7.176251E-02
111.6,0.3047445
111.65,0.4890568
111.7,0.7074814
111.75,1.04956
111.8,0.8883178
111.85,0.3317719
111.9,3.592699E-02
111.95,1.258866
112,3.986369
112.05,7.881414
112.1,12.68711
112.15,17.72316
112.2,23.74995
112.25,30.3254
112.3,36.47114
112.35,43.29819
112.4,51.20127
112.45,61.34991
112.5,74.23983
112.55,87.55372
112.6,102.0559
112.65,116.9055
112.7,131.3552
112.75,142.6643
112.8,150.6009
112.85,154.5701
112.9,157.3693
112.95,160.4169
113,162.7356
113.05,162.4846
113.1,160.2126
113.15,154.4783
113.2,149.577
113.25,142.959
113.3,135.5055
113.35,125.5969
113.4,112.4995
113.45,98.72688
113.5,87.44666
113.55,79.30653
113.6,73.49675
113.65,67.84425
113.7,61.63248
113.75,57.39646
113.8,56.2667
113.85,55.57133
113.9,53.22028
113.95,48.57518
114,41.68484
114.05,32.74759
114.1,25.4837
114.15,22.1798
114.2,20.21363
114.25,19.0875
114.3,19.66326
114.35,20.78393
114.4,20.23777
114.45,17.56627
114.5,14.6884
114.55,12.1844
114.6,10.65663
114.65,10.04451
114.7,10.06261
114.75,9.950595
114.8,8.827217
114.85,6.624044
114.9,4.770482
114.95,4.004713
115,3.853425
115.05,4.013564
115.1,4.417472
115.15,4.80425
115.2,4.378288
115.25,2.981549
115.3,2.07454
115.35,1.977466
115.4,2.065634
115.45,2.361059
115.5,2.540929
115.55,2.031754
115.6,1.126047
115.65,0.9921768
115.7,1.498354
115.75,1.840914
115.8,2.014611
115.85,1.726474
115.9,1.23618
115.95,1.498529
116,2.641673
116.05,3.197218
116.1,2.888617
116.15,2.131108
116.2,0.9418678
116.25,-0.1901474
116.3,-0.3087288
116.35,0.14624
116.4,-9.026451E-02
116.45,-0.7276278
116.5,-1.215963
116.55,-1.787519
116.6,-2.045907
116.65,-1.531131
116.7,-0.901931
116.75,-0.7766246
116.8,-1.078689
116.85,-1.612197
116.9,-2.340195
116.95,-2.859303
117,-3.006504
117.05,-3.157374
117.1,-3.274823
117.15,-3.275246
117.2,-3.417106
117.25,-3.385363
117.3,-3.008335
117.35,-2.703886
117.4,-2.732835
117.45,-3.153276
117.5,-3.37506
117.55,-3.637487
117.6,-3.581506
117.65,-3.360935
117.7,-3.214674
117.75,-3.104377
117.8,-2.485777
117.85,-1.526591
117.9,-0.4902478
117.95,0.2679378
118,0.5357398
118.05,8.166457E-02
118.1,-0.6295359
118.15,-1.571526
118.2,-2.662783
118.25,-3.57342
118.3,-3.942847
118.35,-3.81854
118.4,-3.400011
118.45,-3.114227
118.5,-3.344693
118.55,-3.967853
118.6,-4.577471
118.65,-4.894651
118.7,-4.905061
118.75,-4.717513
118.8,-4.463956
118.85,-4.41986
118.9,-4.522642
118.95,-4.567292
119,-4.640424
119.05,-4.568652
119.1,-4.693769
119.15,-4.812148
119.2,-4.947579
119.25,-5.025227
119.3,-4.878178
119.35,-4.445458
119.4,-4.15564
119.45,-4.007016
119.5,-4.045578
119.55,-4.007384
119.6,-4.043082
119.65,-3.927005
119.7,-3.919719
119.75,-3.811435
119.8,-3.654743
119.85,-3.61782
119.9,-3.863931
119.95,-4.233717
120,-4.460542
120.05,-4.588345
120.1,-4.54323
120.15,-4.331336
120.2,-4.172688
120.25,-4.164865
120.3,-4.229671
120.35,-4.303535
120.4,-4.318591
120.45,-4.307365
120.5,-4.225741
120.55,-4.13009
120.6,-4.005572
120.65,-3.938017
120.7,-3.950812
120.75,-4.06584
120.8,-4.300819
120.85,-4.386269
120.9,-4.174849
120.95,-3.84754
121,-3.634156
121.05,-3.624368
121.1,-3.775889
121.15,-3.987785
121.2,-4.046978
121.25,-3.976153
121.3,-4.034871
121.35,-4.230614
121.4,-4.362439
121.45,-4.418837
121.5,-4.338204
121.55,-4.202993
121.6,-4.154258
121.65,-4.27477
121.7,-4.431179
121.75,-4.467261
121.8,-4.295654
121.85,-4.240579
121.9,-4.113009
121.95,-4.172277
122,-4.228467
122.05,-4.144657
122.1,-3.839569
122.15,-3.559734
122.2,-3.534256
122.25,-3.709197
122.3,-4.034956
122.35,-4.292506
122.4,-4.410608
122.45,-4.467707
122.5,-4.3756
122.55,-4.339294
122.6,-4.34694
122.65,-4.347413
122.7,-4.186208
122.75,-3.863031
122.8,-3.537006
122.85,-3.596397
122.9,-3.826551
122.95,-4.127823
123,-4.349712
123.05,-4.310186
123.1,-4.078701
123.15,-3.712711
123.2,-3.38994
123.25,-3.326948
123.3,-3.550744
123.35,-3.964753
123.4,-4.307264
123.45,-4.510384
123.5,-4.579773
123.55,-4.501007
123.6,-4.413706
123.65,-4.467324
123.7,-4.668518
123.75,-4.75541
123.8,-4.792265
123.85,-4.792307
123.9,-4.917987
123.95,-4.902799
124,-4.768053
124.05,-4.598184
124.1,-4.457993
124.15,-4.347568
124.2,-4.388233
124.25,-4.497131
124.3,-4.798822
124.35,-4.82199
124.4,-4.789829
124.45,-4.665124
124.5,-4.487604
124.55,-4.541162
124.6,-4.439858
124.65,-4.333976
124.7,-4.373549
124.75,-4.367846
124.8,-4.25645
124.85,-4.018988
124.9,-3.993557
124.95,-4.108621
125,-4.171209
125.05,-4.430856
125.1,-4.626027
125.15,-4.690951
125.2,-4.703077
125.25,-4.652334
125.3,-4.519124
125.35,-4.347792
125.4,-4.343999
125.45,-4.384018
125.5,-4.354712
125.55,-4.355595
125.6,-4.335301
125.65,-4.390879
125.7,-4.582818
125.75,-4.89791
125.8,-5.056863
125.85,-5.009902
125.9,-4.551759
125.95,-4.19959
126,-4.017317
126.05,-4.10908
126.1,-4.393954
126.15,-4.735355
126.2,-4.923027
126.25,-4.940149
126.3,-4.72254
126.35,-4.762125
126.4,-4.62759
126.45,-4.627016
126.5,-4.644387
126.55,-4.642957
126.6,-4.490654
126.65,-4.44526
126.7,-4.33438
126.75,-4.304147
126.8,-4.253698
126.85,-4.374083
126.9,-4.458382
126.95,-4.582351
127,-4.716122
127.05,-4.706503
127.1,-4.680481
127.15,-4.731096
127.2,-4.73995
127.25,-4.881287
127.3,-4.948878
127.35,-4.927182
127.4,-4.791815
127.45,-4.611687
127.5,-4.550966
127.55,-4.578916
127.6,-4.692982
127.65,-4.779987
127.7,-4.73504
127.75,-4.662591
127.8,-4.583546
127.85,-4.56058
127.9,-4.674221
127.95,-4.761552
128,-4.817787
128.05,-4.938369
128.1,-4.991951
128.15,-4.993729
128.2,-5.014833
128.25,-5.001597
128.3,-4.944778
128.35,-4.737461
128.4,-4.84995
128.45,-4.958157
128.5,-4.931555
128.55,-4.866595
128.6,-4.955872
128.65,-4.934117
128.7,-4.810771
128.75,-4.643636
128.8,-4.590744
128.85,-4.486954
128.9,-4.463576
128.95,-4.446319
129,-4.507799
129.05,-4.4701
129.1,-4.559363
129.15,-4.664379
129.2,-4.758834
129.25,-4.893766
129.3,-4.922374
129.35,-4.969044
129.4,-4.988332
129.45,-4.916376
129.5,-4.871272
129.55,-4.844039
129.6,-4.999041
129.65,-5.055552
129.7,-4.965754
129.75,-4.890014
129.8,-4.764863
129.85,-4.574264
129.9,-4.551373
129.95,-4.624461
130,-4.638374
130.05,-4.572558
130.1,-4.590949
130.15,-4.689827
130.2,-4.745715
130.25,-4.847913
130.3,-4.795382
130.35,-4.800694
130.4,-4.803169
130.45,-4.7961
130.5,-4.79329
130.55,-4.835203
130.6,-4.83838
130.65,-4.86094
130.7,-4.881289
130.75,-5.042134
130.8,-4.98215
130.85,-4.912757
130.9,-4.847523
130.95,-4.707391
131,-4.738713
131.05,-4.790999
131.1,-4.842252
131.15,-4.933354
131.2,-4.922499
131.25,-4.869622
131.3,-4.972823
131.35,-4.948678
131.4,-4.899709
131.45,-4.803157
131.5,-4.747727
131.55,-4.680924
131.6,-4.718431
131.65,-4.746707
131.7,-4.685812
131.75,-4.521708
131.8,-4.390556
131.85,-4.386116
131.9,-4.534261
131.95,-4.639863
132,-4.766704
132.05,-4.902479
132.1,-4.977122
132.15,-4.948064
132.2,-4.854205
132.25,-4.89014
132.3,-4.904368
132.35,-4.821559
132.4,-4.765965
132.45,-4.661194
132.5,-4.495509
132.55,-4.423598
132.6,-4.465131
132.65,-4.601542
132.7,-4.604917
132.75,-4.625178
132.8,-4.650144
132.85,-4.674781
132.9,-4.686974
132.95,-4.753801
133,-4.619465
133.05,-4.648619
133.1,-4.746896
133.15,-4.702456
133.2,-4.612711
133.25,-4.605293
133.3,-4.638746
133.35,-4.673838
133.4,-4.72775
133.45,-4.899197
133.5,-4.888995
133.55,-4.647802
133.6,-4.828684
133.65,-4.920599
133.7,-5.0008
133.75,-4.982512
133.8,-4.881526
133.85,-4.859902
133.9,-4.836382
133.95,-4.809464
134,-4.808727
134.05,-4.640999
134.1,-4.567111
134.15,-4.592834
134.2,-4.80363
134.25,-5.010704
134.3,-5.03009
134.35,-4.972643
134.4,-4.852936
134.45,-4.750276
134.5,-4.747682
134.55,-4.792647
134.6,-4.810826
134.65,-4.806575
134.7,-4.806509
134.75,-4.8224
134.8,-4.836837
134.85,-4.846366
134.9,-4.818013
134.95,-4.82377
135,-4.822758
135.05,-4.835974
135.1,-4.776145
135.15,-4.793602
135.2,-4.794642
135.25,-4.867081
135.3,-5.000839
135.35,-5.000839
135.4,-5.000839
135.45,-5.000839
135.5,-5.000839
135.55,-5.000839
135.6,-5.000839
135.65,-5.000839
135.7,-5.000839
135.75,-5.000839
135.8,-5.000839
135.85,-5.000839
135.9,-5.000839
135.95,-5.000839
136,-5.000839
136.05,-5.000839
136.1,-5.000839
136.15,-5.000839
136.2,-5.000839
136.25,-5.000839
136.3,-5.000839
136.35,-5.000839
136.4,-5.000839
136.45,-5.000839
136.5,-5.000839
136.55,-5.000839
136.6,-5.000839
136.65,-5.000839
136.7,-5.000839
136.75,-5.000839
136.8,-5.000839
136.85,-5.000839
136.9,-5.000839
136.95,-5.000839
137,-5.000839
137.05,-5.000839
137.1,-5.000839
137.15,-5.000839
137.2,-5.000839
137.25,-5.000839
137.3,-5.000839
137.35,-5.000839
137.4,-5.000839
137.45,-5.000839
137.5,-5.000839
137.55,-5.000839
137.6,-5.000839
137.65,-5.000839
137.7,-5.000839
137.75,-5.000839
137.8,-5.000839
137.85,-5.000839
137.9,-5.000839
137.95,-5.000839
138,-5.000839
 
Alignment,On
