Data File Name,2100 expert_High Sensitivity DNA Assay_DE13805071_2013-11-18_15-35-14.xad
Data File Path,C:\Program Files (x86)\Agilent\2100 bioanalyzer\2100 expert\data\2013-11-18
Date Created,"Monday, November 18, 2013 2:35:13 PM"
Date Last Modified,"Monday, November 18, 2013 4:45:26 PM"
Version Created,B.02.08.SI648
Version Last Modified,B.02.08.SI648
 
Assay Name,High Sensitivity DNA
Assay Path,C:\Program Files (x86)\Agilent\2100 bioanalyzer\2100 expert\assays\dsDNA
Assay Title,High Sensitivity DNA Assay
Assay Version,1.03
 
Number of Samples Run,11
 
Sample Name,Ladder
Number of Events,2121
 
Time,Value
32,3.032027E-02
32.05,3.224699E-02
32.1,0.0679222
32.15,-3.598597E-02
32.2,-4.367643E-02
32.25,3.710344E-02
32.3,6.492543E-03
32.35,0.194042
32.4,0.2180697
32.45,0.1641646
32.5,0.1186363
32.55,4.719276E-02
32.6,-0.1133126
32.65,-0.2410536
32.7,-0.1623827
32.75,-6.269173E-02
32.8,0.1349827
32.85,0.1313664
32.9,0.0669022
32.95,6.576443E-02
33,5.834563E-02
33.05,0.1051193
33.1,0.1329613
33.15,9.496237E-03
33.2,-0.1029677
33.25,-1.047359E-02
33.3,4.695689E-02
33.35,7.708659E-02
33.4,0.1336698
33.45,0.1291019
33.5,2.512199E-02
33.55,9.897969E-03
33.6,0.0854362
33.65,0.0393919
33.7,7.835152E-02
33.75,0.2216965
33.8,0.2949565
33.85,0.2121646
33.9,0.165205
33.95,0.2173277
34,0.2090482
34.05,0.2562851
34.1,0.3143704
34.15,0.2924611
34.2,0.2635111
34.25,0.2806795
34.3,0.3220279
34.35,0.328293
34.4,0.2511712
34.45,0.1561864
34.5,6.080889E-02
34.55,-0.0302599
34.6,-0.1207155
34.65,-9.577804E-02
34.7,-3.522725E-02
34.75,0.0222014
34.8,0.18453
34.85,0.1698459
34.9,-1.390068E-02
34.95,-0.1920765
35,-0.2627024
35.05,-9.581456E-02
35.1,0.1563807
35.15,0.2687959
35.2,0.1865023
35.25,1.792607E-02
35.3,-0.1684853
35.35,-0.2079254
35.4,-9.482358E-02
35.45,-5.724096E-02
35.5,-0.1649703
35.55,-0.2522627
35.6,-0.3543771
35.65,-0.2652425
35.7,-0.1313978
35.75,-5.282007E-02
35.8,-7.111336E-02
35.85,-0.1428252
35.9,-0.207561
35.95,-0.1493651
36,-1.392221E-02
36.05,-4.748265E-02
36.1,-0.1222025
36.15,-0.1356431
36.2,-0.1522264
36.25,-0.221277
36.3,-0.1876336
36.35,-0.3032893
36.4,-0.3779013
36.45,-0.3656682
36.5,-0.1790694
36.55,-0.1192205
36.6,-0.1099285
36.65,-0.1915351
36.7,-0.3066103
36.75,-0.2663448
36.8,-0.257815
36.85,-0.1794036
36.9,-0.2655021
36.95,-0.3264071
37,-0.4432997
37.05,-0.3740502
37.1,-0.2744185
37.15,-0.3101693
37.2,-0.2998842
37.25,-0.3644145
37.3,-0.3706518
37.35,-0.3482139
37.4,-0.2342864
37.45,-0.1621628
37.5,-0.1570669
37.55,-0.2035047
37.6,-0.2682186
37.65,-0.2160289
37.7,-0.2591879
37.75,-0.2711454
37.8,-0.2864352
37.85,-0.4263327
37.9,-0.5976261
37.95,-0.6327819
38,-0.5296702
38.05,-0.4418867
38.1,-0.2679613
38.15,-0.3607115
38.2,-0.4039244
38.25,-0.3201401
38.3,-0.2250286
38.35,-0.1284718
38.4,-0.2002471
38.45,-0.3511678
38.5,-0.5296023
38.55,-0.5017225
38.6,-0.5218682
38.65,-0.7010831
38.7,-0.7115154
38.75,-0.6789755
38.8,-0.4955198
38.85,-0.2648094
38.9,-0.1619438
38.95,-0.2834345
39,-0.6952167
39.05,-0.7801641
39.1,-0.8281404
39.15,-0.7062938
39.2,-0.6176122
39.25,-0.6251194
39.3,-0.6555359
39.35,-0.6169376
39.4,-0.3827573
39.45,-0.2357295
39.5,-0.1721812
39.55,-0.4301989
39.6,-0.6218262
39.65,-0.7172281
39.7,-0.7139682
39.75,-0.5778261
39.8,-0.4019099
39.85,-0.3325884
39.9,-0.3792274
39.95,-0.1732389
40,-0.0910521
40.05,-0.159722
40.1,-0.2995513
40.15,-0.4453662
40.2,-0.4846511
40.25,-0.4537882
40.3,-0.318939
40.35,-0.2264344
40.4,-0.2892228
40.45,-0.222451
40.5,1.481792E-02
40.55,0.4730116
40.6,0.4262681
40.65,-0.8452548
40.7,-3.192822
40.75,-5.73637
40.8,-7.217836
40.85,-7.229336
40.9,-6.020609
40.95,-4.894567
41,-4.185448
41.05,-3.862499
41.1,-3.684932
41.15,-3.505161
41.2,-3.286081
41.25,-2.985528
41.3,-2.875756
41.35,-2.753339
41.4,-2.695411
41.45,-2.674695
41.5,-2.51674
41.55,-2.26793
41.6,-2.068799
41.65,-2.084747
41.7,-2.075245
41.75,-2.038912
41.8,-2.100809
41.85,-2.014142
41.9,-1.947518
41.95,-1.872823
42,-1.752858
42.05,-1.619039
42.1,-1.428853
42.15,-1.45199
42.2,-1.438385
42.25,-1.470143
42.3,-1.477848
42.35,-1.46978
42.4,-1.520522
42.45,-1.462815
42.5,-1.096368
42.55,0.3546675
42.6,3.683556
42.65,10.78248
42.7,22.97537
42.75,41.96421
42.8,67.84258
42.85,97.6365
42.9,126.0852
42.95,146.3164
43,152.9715
43.05,142.3931
43.1,119.4715
43.15,89.895
43.2,60.58268
43.25,36.44136
43.3,19.60222
43.35,9.623294
43.4,4.706355
43.45,2.61349
43.5,1.975837
43.55,1.852746
43.6,1.667448
43.65,1.395333
43.7,1.13522
43.75,0.9073256
43.8,0.6587033
43.85,0.6349307
43.9,0.5453021
43.95,0.4139222
44,0.2823831
44.05,0.1821789
44.1,-4.183647E-02
44.15,-0.2384515
44.2,-0.2158056
44.25,-0.2747592
44.3,-0.2987491
44.35,-0.1225088
44.4,-0.164709
44.45,-0.3297458
44.5,-0.4397842
44.55,-0.473896
44.6,-0.4657207
44.65,-0.3083999
44.7,-0.2832508
44.75,-0.5030544
44.8,-0.4795697
44.85,0.1234891
44.9,2.434749
44.95,8.420539
45,20.99263
45.05,43.54987
45.1,78.65163
45.15,124.7436
45.2,174.2886
45.25,214.9565
45.3,235.2159
45.35,229.1456
45.4,198.9155
45.45,153.5086
45.5,104.7099
45.55,62.73213
45.6,33.04525
45.65,16.04304
45.7,8.444408
45.75,5.65719
45.8,4.587694
45.85,3.895703
45.9,3.205904
45.95,2.46022
46,1.948962
46.05,1.694934
46.1,1.619599
46.15,1.5934
46.2,1.436579
46.25,1.274549
46.3,0.9674385
46.35,0.6336167
46.4,0.326849
46.45,-0.0195869
46.5,-0.2471192
46.55,-0.4298409
46.6,-0.5366219
46.65,-0.6421635
46.7,-0.8416025
46.75,-1.018502
46.8,-1.217791
46.85,-1.244868
46.9,-1.11542
46.95,-0.9590889
47,-0.8386476
47.05,-0.8448943
47.1,-1.021557
47.15,-1.161853
47.2,-1.174925
47.25,-1.132843
47.3,-1.189351
47.35,-1.249229
47.4,-1.369281
47.45,-1.375185
47.5,-1.228326
47.55,-1.044859
47.6,-1.024193
47.65,-1.119778
47.7,-1.26158
47.75,-1.390601
47.8,-1.466809
47.85,-1.586581
47.9,-1.533841
47.95,-1.552308
48,-1.489162
48.05,-1.422239
48.1,-1.361286
48.15,-1.371308
48.2,-1.480009
48.25,-1.477435
48.3,-1.591573
48.35,-1.533915
48.4,-1.377704
48.45,-1.427878
48.5,-1.612429
48.55,-1.836602
48.6,-1.924482
48.65,-1.940249
48.7,-1.711067
48.75,-1.522427
48.8,-1.575318
48.85,-1.588773
48.9,-1.658617
48.95,-1.678379
49,-1.715868
49.05,-1.753131
49.1,-1.862961
49.15,-1.911957
49.2,-1.851647
49.25,-1.768063
49.3,-1.759672
49.35,-1.774383
49.4,-1.855691
49.45,-1.989618
49.5,-2.007107
49.55,-1.937194
49.6,-1.847177
49.65,-1.900928
49.7,-1.8486
49.75,-1.859239
49.8,-1.931552
49.85,-2.029356
49.9,-2.052946
49.95,-2.061939
50,-2.083119
50.05,-2.045737
50.1,-1.856635
50.15,-1.758012
50.2,-1.854468
50.25,-1.854212
50.3,-1.890316
50.35,-1.769071
50.4,-0.3396718
50.45,4.455733
50.5,16.17601
50.55,40.47546
50.6,83.85107
50.65,140.8807
50.7,202.341
50.75,251.4662
50.8,272.7465
50.85,258.2142
50.9,212.3123
50.95,150.5202
51,90.69671
51.05,47.76993
51.1,22.87428
51.15,12.26452
51.2,8.706882
51.25,7.450877
51.3,6.486708
51.35,5.498103
51.4,4.485319
51.45,3.552357
51.5,2.849643
51.55,2.053554
51.6,1.496565
51.65,1.095642
51.7,0.7888083
51.75,0.4826761
51.8,8.873059E-02
51.85,-0.33165
51.9,-0.7907128
51.95,-0.9609568
52,-0.9472731
52.05,-0.9735512
52.1,-1.100255
52.15,-1.363585
52.2,-1.572545
52.25,-1.794257
52.3,-1.774199
52.35,-1.568296
52.4,-1.612176
52.45,-1.500709
52.5,-1.35342
52.55,-1.283556
52.6,-1.378984
52.65,-1.46038
52.7,-1.501559
52.75,-1.671615
52.8,-1.638543
52.85,-1.666329
52.9,-1.801163
52.95,-1.799223
53,-1.73585
53.05,-1.677148
53.1,-1.665332
53.15,-1.54623
53.2,-1.441637
53.25,-1.298231
53.3,-1.146618
53.35,-1.026184
53.4,-0.9311997
53.45,-0.7466925
53.5,-0.6833756
53.55,-0.7113206
53.6,-0.9680986
53.65,-1.315199
53.7,-1.623758
53.75,-1.768627
53.8,-1.770077
53.85,-1.755599
53.9,-1.623024
53.95,-1.607862
54,-1.58795
54.05,-1.435038
54.1,-1.482206
54.15,-1.715931
54.2,-1.943322
54.25,-2.032513
54.3,-2.055088
54.35,-1.978976
54.4,-1.858197
54.45,-1.884675
54.5,-1.909889
54.55,-1.887941
54.6,-1.801558
54.65,-1.820876
54.7,-1.799916
54.75,-1.796249
54.8,-1.781155
54.85,-1.775007
54.9,-1.697243
54.95,-1.628994
55,-1.607883
55.05,-0.7193518
55.1,2.393091
55.15,12.09843
55.2,34.6585
55.25,76.7637
55.3,139.8262
55.35,217.3084
55.4,291.6396
55.45,334.8506
55.5,332.0482
55.55,284.3415
55.6,209.7159
55.65,132.469
55.7,72.23384
55.75,35.73643
55.8,18.84509
55.85,13.24668
55.9,11.50023
55.95,10.26361
56,8.710702
56.05,7.137411
56.1,5.78639
56.15,4.616638
56.2,3.725255
56.25,3.116236
56.3,2.566012
56.35,2.08802
56.4,1.696886
56.45,1.532353
56.5,1.272352
56.55,1.04057
56.6,0.789053
56.65,0.3938872
56.7,0.1395689
56.75,-0.1629886
56.8,-0.3171361
56.85,-0.4746307
56.9,-0.5196282
56.95,-0.5302265
57,-0.5827102
57.05,-0.6970392
57.1,-0.8756903
57.15,-1.039037
57.2,-0.9552515
57.25,-0.9651155
57.3,-1.056171
57.35,-1.259781
57.4,-1.425796
57.45,-1.447914
57.5,-1.340584
57.55,-1.340967
57.6,-1.470613
57.65,-1.742771
57.7,-1.843978
57.75,-1.848618
57.8,-1.789969
57.85,-1.770084
57.9,-1.789666
57.95,-1.797212
58,-1.849578
58.05,-1.869264
58.1,-1.816914
58.15,-1.670895
58.2,-1.644222
58.25,-1.647524
58.3,-1.721701
58.35,-1.730043
58.4,-1.735376
58.45,-1.66151
58.5,-1.731073
58.55,-1.889
58.6,-1.86125
58.65,-1.791196
58.7,-1.724712
58.75,-1.86087
58.8,-2.017345
58.85,-2.178995
58.9,-2.208229
58.95,-2.09489
59,-1.90318
59.05,-1.855012
59.1,-1.902971
59.15,-1.835044
59.2,-1.86673
59.25,-1.893715
59.3,-1.983049
59.35,-1.926056
59.4,-2.062479
59.45,-2.153873
59.5,-2.148732
59.55,-2.222562
59.6,-2.284672
59.65,-1.931046
59.7,0.2702888
59.75,7.541215
59.8,25.74534
59.85,64.85883
59.9,127.4332
59.95,209.3324
60,294.3547
60.05,356.7672
60.1,375.4052
60.15,343.0786
60.2,270.8784
60.25,182.7737
60.3,107.568
60.35,58.47953
60.4,32.85789
60.45,22.60075
60.5,18.72687
60.55,16.08245
60.6,13.54027
60.65,11.34981
60.7,9.541498
60.75,8.312885
60.8,7.107048
60.85,6.176642
60.9,5.376994
60.95,4.687856
61,4.197912
61.05,3.657564
61.1,3.003407
61.15,2.455865
61.2,1.941448
61.25,1.504576
61.3,1.311909
61.35,1.191368
61.4,0.9974286
61.45,0.8229927
61.5,0.735418
61.55,0.5589101
61.6,0.3712403
61.65,0.2039914
61.7,-5.283573E-02
61.75,-0.1138873
61.8,-3.847263E-02
61.85,9.592607E-02
61.9,5.769574E-03
61.95,-0.1215091
62,0.1803388
62.05,0.3223034
62.1,0.1473779
62.15,-0.1478121
62.2,-0.5482327
62.25,-0.9003918
62.3,-1.054767
62.35,-1.065219
62.4,-1.27032
62.45,-1.436644
62.5,-1.414187
62.55,-1.386221
62.6,-1.437009
62.65,-1.493649
62.7,-1.521252
62.75,-1.541369
62.8,-1.558832
62.85,-1.482188
62.9,-1.389899
62.95,-1.413031
63,-1.434424
63.05,-1.499184
63.1,-1.607417
63.15,-1.710346
63.2,-1.690845
63.25,-1.634834
63.3,-1.607406
63.35,-1.51748
63.4,-1.478152
63.45,-1.520747
63.5,-1.563557
63.55,-1.611526
63.6,-1.700253
63.65,-1.709749
63.7,-1.56466
63.75,-1.472251
63.8,-1.47874
63.85,-1.451738
63.9,-1.430321
63.95,-1.537985
64,-1.60008
64.05,-1.679011
64.1,-1.747553
64.15,-1.743555
64.2,-1.635099
64.25,-1.50124
64.3,-1.419639
64.35,-1.470927
64.4,-1.483496
64.45,-0.7108662
64.5,0.2191854
64.55,6.780067E-02
64.6,-0.858017
64.65,-2.089891
64.7,-3.103425
64.75,-3.233469
64.8,-2.501351
64.85,-1.883052
64.9,-1.912607
64.95,-1.861423
65,-1.818513
65.05,-1.668841
65.1,-1.499278
65.15,-1.316652
65.2,-1.343322
65.25,-1.522216
65.3,-1.790274
65.35,-1.890439
65.4,-1.808108
65.45,-1.600205
65.5,-1.465943
65.55,-1.368823
65.6,-1.273579
65.65,-1.122865
65.7,-1.009022
65.75,-0.9714034
65.8,-1.005111
65.85,-1.114968
65.9,-1.142033
65.95,-1.172207
66,-1.270869
66.05,-1.400213
66.1,-1.352368
66.15,-1.336763
66.2,-1.35371
66.25,-1.300255
66.3,-1.266631
66.35,-1.241633
66.4,-1.295467
66.45,-1.340564
66.5,-1.444867
66.55,-1.341655
66.6,-1.107527
66.65,-1.015442
66.7,-1.056903
66.75,-1.21128
66.8,-1.303968
66.85,-1.287518
66.9,-1.140909
66.95,-1.153877
67,-1.143548
67.05,-1.286871
67.1,-1.383542
67.15,-1.431615
67.2,-1.316693
67.25,-1.155406
67.3,-1.149114
67.35,-1.091723
67.4,-1.201605
67.45,-1.32453
67.5,-1.257384
67.55,-1.102757
67.6,-1.062074
67.65,-0.9773254
67.7,-0.8687374
67.75,-0.9263692
67.8,-0.9518839
67.85,-0.9560199
67.9,-0.7707562
67.95,-0.5683256
68,-0.2125427
68.05,0.1195045
68.1,0.4540579
68.15,0.8464223
68.2,1.136457
68.25,1.352379
68.3,1.174096
68.35,0.7949864
68.4,0.5671415
68.45,0.4589116
68.5,0.4403656
68.55,0.5085825
68.6,1.008225
68.65,2.62522
68.7,5.972875
68.75,13.55247
68.8,27.12138
68.85,50.33445
68.9,87.4027
68.95,141.0054
69,208.1851
69.05,280.9535
69.1,347
69.15,389.1061
69.2,393.0422
69.25,358.7103
69.3,295.6457
69.35,220.3533
69.4,150.4989
69.45,97.51089
69.5,63.46386
69.55,44.52962
69.6,34.38137
69.65,28.74985
69.7,24.74369
69.75,21.4185
69.8,18.63823
69.85,16.50454
69.9,14.88275
69.95,13.60756
70,12.79053
70.05,12.07123
70.1,11.30148
70.15,10.41784
70.2,9.741038
70.25,8.74052
70.3,7.709868
70.35,6.905965
70.4,6.068296
70.45,5.322543
70.5,4.586199
70.55,3.929025
70.6,3.317149
70.65,3.080591
70.7,2.946872
70.75,2.790564
70.8,2.63355
70.85,2.481691
70.9,2.345608
70.95,2.391463
71,2.26877
71.05,1.932405
71.1,1.679434
71.15,1.452722
71.2,1.15536
71.25,0.9507425
71.3,0.7833391
71.35,0.6245272
71.4,0.5272834
71.45,0.4476222
71.5,0.3055157
71.55,0.1471664
71.6,0.2101667
71.65,0.3588592
71.7,0.4773007
71.75,0.343411
71.8,0.115954
71.85,2.973238E-02
71.9,-1.138834E-02
71.95,-2.256154E-02
72,-9.107396E-02
72.05,-0.2836083
72.1,-0.4866303
72.15,-0.6034307
72.2,-0.5269546
72.25,-0.5829122
72.3,-0.6114376
72.35,-0.6079063
72.4,-0.6571602
72.45,-0.7235696
72.5,-0.8965753
72.55,-1.014412
72.6,-1.092235
72.65,-1.007678
72.7,-0.9515623
72.75,-0.8570417
72.8,-0.8133479
72.85,-0.897321
72.9,-0.9428499
72.95,-0.9388387
73,-0.8461393
73.05,-0.7958763
73.1,-0.7180264
73.15,-0.8482361
73.2,-1.047839
73.25,-1.117757
73.3,-1.134846
73.35,-0.9867175
73.4,-0.9396879
73.45,-0.9505708
73.5,-1.00761
73.55,-0.9356044
73.6,-0.8208597
73.65,-0.7353401
73.7,-0.7143167
73.75,-0.7841649
73.8,-0.8422351
73.85,-0.9800956
73.9,-1.180387
73.95,-1.388331
74,-1.477314
74.05,-1.390543
74.1,-1.295991
74.15,-1.186385
74.2,-1.202193
74.25,-1.258445
74.3,-1.253363
74.35,-1.160439
74.4,-1.089433
74.45,-1.059876
74.5,-0.9954291
74.55,-1.038676
74.6,-1.074463
74.65,-1.0941
74.7,-1.166525
74.75,-1.302646
74.8,-1.394713
74.85,-1.411899
74.9,-1.243228
74.95,-1.085588
75,-1.002258
75.05,-1.045982
75.1,-1.200765
75.15,-1.307632
75.2,-1.266768
75.25,-1.243308
75.3,-1.297904
75.35,-1.255038
75.4,-1.028065
75.45,-0.9636213
75.5,-0.9161925
75.55,-0.9062302
75.6,-1.02513
75.65,-1.153223
75.7,-1.291693
75.75,-1.438694
75.8,-1.393456
75.85,-1.187929
75.9,-0.9236615
75.95,-0.7220414
76,-0.8142772
76.05,-1.061167
76.1,-1.22051
76.15,-1.163226
76.2,-1.071974
76.25,-0.8589897
76.3,-0.8297734
76.35,-1.019963
76.4,-1.202901
76.45,-1.318709
76.5,-1.347794
76.55,-1.277498
76.6,-1.162181
76.65,-0.8971641
76.7,-8.757591E-02
76.75,1.918321
76.8,7.316621
76.85,20.80135
76.9,48.59208
76.95,95.51385
77,163.0606
77.05,246.8127
77.1,336.9139
77.15,416.3651
77.2,465.491
77.25,474.0279
77.3,443.0918
77.35,380.1881
77.4,301.4254
77.45,223.7779
77.5,158.7412
77.55,109.7839
77.6,78.64009
77.65,60.26841
77.7,47.35914
77.75,38.73682
77.8,33.29569
77.85,29.56969
77.9,26.18943
77.95,23.37579
78,21.03885
78.05,18.62917
78.1,16.94628
78.15,15.84703
78.2,14.68208
78.25,13.49089
78.3,12.38729
78.35,11.14667
78.4,9.563406
78.45,8.285869
78.5,7.004595
78.55,5.950475
78.6,5.13147
78.65,4.658724
78.7,4.462338
78.75,4.246026
78.8,3.959111
78.85,3.317567
78.9,2.832476
78.95,2.445837
79,2.083495
79.05,1.855823
79.1,1.634542
79.15,1.574053
79.2,1.644066
79.25,1.712247
79.3,1.631397
79.35,1.484984
79.4,1.251729
79.45,0.9929866
79.5,0.9397052
79.55,0.8318659
79.6,0.6931187
79.65,0.5691562
79.7,0.3389894
79.75,-6.118771E-02
79.8,-0.2375836
79.85,-0.2193831
79.9,-0.3476412
79.95,-0.438131
80,-0.4610868
80.05,-0.4637462
80.1,-0.4063349
80.15,-0.3387709
80.2,-0.2555864
80.25,-0.3706046
80.3,-0.6391277
80.35,-0.9248383
80.4,-1.097512
80.45,-0.93625
80.5,-0.6575695
80.55,-0.6374482
80.6,-0.9528537
80.65,-1.406367
80.7,-1.713459
80.75,-1.75231
80.8,-1.410404
80.85,-1.116437
80.9,-1.03867
80.95,-1.19854
81,-1.449009
81.05,-1.518756
81.1,-1.553737
81.15,-1.461477
81.2,-1.285611
81.25,-1.32144
81.3,-1.343459
81.35,-1.263013
81.4,-1.073396
81.45,-0.937541
81.5,-0.883747
81.55,-0.9981751
81.6,-1.224258
81.65,-1.250984
81.7,-1.392782
81.75,-1.397778
81.8,-1.283043
81.85,-1.250576
81.9,-1.080941
81.95,-0.9645723
82,-0.9881909
82.05,-1.231759
82.1,-1.339373
82.15,-1.356156
82.2,-1.388951
82.25,-1.278246
82.3,-1.077666
82.35,-0.2451897
82.4,1.697172
82.45,7.692939
82.5,21.45637
82.55,47.8689
82.6,92.05154
82.65,155.2238
82.7,234.2193
82.75,320.5915
82.8,401.5838
82.85,463.4083
82.9,492.2361
82.95,480.8418
83,435.2672
83.05,367.3187
83.1,291.8496
83.15,222.3297
83.2,165.6236
83.25,122.9473
83.3,92.89732
83.35,73.61825
83.4,60.6844
83.45,52.16541
83.5,46.44353
83.55,41.96702
83.6,38.46587
83.65,35.51415
83.7,32.46046
83.75,29.47917
83.8,26.90722
83.85,24.57382
83.9,22.80024
83.95,21.07052
84,19.12869
84.05,17.23742
84.1,15.56087
84.15,14.18446
84.2,12.81871
84.25,11.53173
84.3,10.35005
84.35,9.561823
84.4,8.980873
84.45,8.420616
84.5,7.88715
84.55,7.284701
84.6,6.797721
84.65,6.381629
84.7,5.941481
84.75,5.23284
84.8,4.500453
84.85,4.077402
84.9,3.851114
84.95,3.496273
85,3.10913
85.05,2.688309
85.1,2.15411
85.15,1.924094
85.2,1.798323
85.25,1.427828
85.3,1.050122
85.35,0.7326553
85.4,0.3532282
85.45,0.1244256
85.5,7.285989E-02
85.55,-0.2281725
85.6,-0.3139705
85.65,-0.2802826
85.7,-0.3177291
85.75,-0.4883667
85.8,-0.6533427
85.85,-0.7230965
85.9,-0.8833368
85.95,-0.8033364
86,-0.8132296
86.05,-0.8599957
86.1,-0.9475872
86.15,-1.004641
86.2,-1.238627
86.25,-1.496456
86.3,-1.726227
86.35,-1.906495
86.4,-2.153399
86.45,-2.237234
86.5,-2.288285
86.55,-2.227835
86.6,-2.117621
86.65,-2.12346
86.7,-2.217161
86.75,-2.327908
86.8,-2.406448
86.85,-2.481792
86.9,-2.379633
86.95,-2.136517
87,-0.9538237
87.05,2.681062
87.1,11.00602
87.15,26.64318
87.2,52.17756
87.25,90.7924
87.3,142.6472
87.35,208.702
87.4,284.2289
87.45,360.5644
87.5,426.099
87.55,471.1157
87.6,488.2401
87.65,475.4707
87.7,438.3322
87.75,383.8551
87.8,322.5641
87.85,263.7501
87.9,211.5026
87.95,166.6468
88,130.7007
88.05,104.2415
88.1,84.65102
88.15,71.55291
88.2,62.46362
88.25,55.32553
88.3,48.78688
88.35,43.0905
88.4,38.02902
88.45,33.22243
88.5,29.14402
88.55,25.41115
88.6,22.10654
88.65,18.95265
88.7,16.11638
88.75,13.60172
88.8,12.12252
88.85,10.99484
88.9,10.1689
88.95,9.631191
89,8.906489
89.05,7.817514
89.1,6.475862
89.15,5.368471
89.2,4.464257
89.25,3.963955
89.3,3.68051
89.35,3.332176
89.4,2.96988
89.45,2.389638
89.5,1.80627
89.55,1.386025
89.6,0.9224905
89.65,0.5461506
89.7,0.2261586
89.75,-8.889606E-03
89.8,-0.1708833
89.85,-0.1728556
89.9,-9.414456E-02
89.95,-0.1414341
90,-0.5040164
90.05,-0.3787741
90.1,0.3390895
90.15,2.350415
90.2,6.980098
90.25,16.28219
90.3,31.92393
90.35,57.41276
90.4,95.92284
90.45,149.9109
90.5,216.5197
90.55,290.4256
90.6,362.2735
90.65,424.5149
90.7,468.9139
90.75,486.6761
90.8,475.39
90.85,442.2007
90.9,392.4126
90.95,334.4056
91,276.3448
91.05,223.643
91.1,178.5426
91.15,142.3916
91.2,116.1163
91.25,96.05994
91.3,80.6194
91.35,68.61631
91.4,59.68687
91.45,52.46423
91.5,46.02883
91.55,40.23978
91.6,34.9101
91.65,30.27959
91.7,26.42142
91.75,23.31894
91.8,21.07529
91.85,19.14492
91.9,17.13047
91.95,15.21985
92,13.47537
92.05,11.81267
92.1,10.20812
92.15,8.957627
92.2,7.896383
92.25,6.908181
92.3,5.891928
92.35,5.4493
92.4,5.349014
92.45,5.279156
92.5,4.937655
92.55,4.306745
92.6,3.497666
92.65,2.858539
92.7,2.893814
92.75,2.892376
92.8,2.531549
92.85,2.082878
92.9,1.601986
92.95,1.145896
93,0.9961646
93.05,0.9858062
93.1,0.7405356
93.15,0.4277413
93.2,0.1979855
93.25,7.421871E-03
93.3,0.0319025
93.35,-8.500392E-02
93.4,-0.2751554
93.45,-0.5057703
93.5,-0.8340102
93.55,-1.092103
93.6,-1.308867
93.65,-1.287804
93.7,-1.231135
93.75,-1.156924
93.8,-1.20488
93.85,-1.457393
93.9,-1.639364
93.95,-1.682685
94,-1.099361
94.05,-0.3059495
94.1,1.341978
94.15,4.782935
94.2,11.28922
94.25,23.12619
94.3,42.27403
94.35,70.9083
94.4,111.6041
94.45,163.8459
94.5,226.1919
94.55,293.5877
94.6,359.1332
94.65,419.0437
94.7,466.6862
94.75,495.7005
94.8,502.8964
94.85,488.1761
94.9,453.5624
94.95,408.6077
95,360.1722
95.05,311.3234
95.1,263.838
95.15,220.3026
95.2,181.3865
95.25,148.06
95.3,123.2615
95.35,103.892
95.4,87.92806
95.45,74.23917
95.5,62.69821
95.55,53.12574
95.6,45.70392
95.65,40.32048
95.7,35.15021
95.75,30.16608
95.8,26.50888
95.85,23.57668
95.9,21.18969
95.95,19.11886
96,16.74172
96.05,14.50605
96.1,12.73794
96.15,11.56765
96.2,10.30043
96.25,9.198156
96.3,8.085988
96.35,6.763369
96.4,6.118021
96.45,5.88479
96.5,5.760802
96.55,5.647218
96.6,5.290537
96.65,4.501086
96.7,3.704522
96.75,3.371137
96.8,3.123599
96.85,2.785462
96.9,2.186083
96.95,1.296938
97,0.4945523
97.05,0.2821037
97.1,0.3466789
97.15,0.4671838
97.2,0.300924
97.25,0.0194149
97.3,-6.158002E-02
97.35,-3.864471E-02
97.4,-2.522339E-02
97.45,0.1055507
97.5,6.692284E-02
97.55,-0.2332671
97.6,-0.3598775
97.65,-5.787703E-02
97.7,0.483888
97.75,1.067349
97.8,1.494507
97.85,1.407905
97.9,1.079246
97.95,1.039325
98,0.9479566
98.05,0.7173468
98.1,0.5096999
98.15,0.2670349
98.2,0.2582276
98.25,0.6171991
98.3,1.109532
98.35,1.403292
98.4,1.446524
98.45,1.320998
98.5,1.244936
98.55,1.152426
98.6,1.300882
98.65,1.404078
98.7,1.212105
98.75,0.9469079
98.8,0.8752801
98.85,1.044242
98.9,1.173179
98.95,1.369299
99,1.175812
99.05,0.6357277
99.1,0.20084
99.15,-8.808584E-02
99.2,-3.443818E-02
99.25,0.2475723
99.3,0.6063432
99.35,1.074396
99.4,1.516402
99.45,1.884342
99.5,1.841605
99.55,1.782794
99.6,1.693522
99.65,1.678938
99.7,1.707605
99.75,1.39314
99.8,0.9253493
99.85,0.5540932
99.9,0.8127621
99.95,1.118207
100,1.300213
100.05,1.521104
100.1,1.836161
100.15,1.92315
100.2,1.737152
100.25,1.276337
100.3,0.4868603
100.35,0.3956757
100.4,1.165326
100.45,3.170342
100.5,5.883898
100.55,9.877834
100.6,16.651
100.65,28.73502
100.7,48.00583
100.75,76.23313
100.8,116.1997
100.85,165.8054
100.9,224.4023
100.95,289.2885
101,362.2436
101.05,433.7445
101.1,496.9583
101.15,547.3137
101.2,571.2615
101.25,577.4026
101.3,569.1975
101.35,546.5019
101.4,511.4951
101.45,470.7932
101.5,427.9543
101.55,379.179
101.6,330.2111
101.65,279.7658
101.7,230.1953
101.75,188.5282
101.8,157.1601
101.85,134.6704
101.9,114.8527
101.95,96.12811
102,81.89027
102.05,70.45123
102.1,61.21128
102.15,53.18448
102.2,45.16245
102.25,36.89918
102.3,30.72056
102.35,26.8557
102.4,24.50291
102.45,22.96103
102.5,20.75571
102.55,17.9569
102.6,15.10669
102.65,12.94276
102.7,11.32179
102.75,10.24265
102.8,9.568987
102.85,8.810067
102.9,8.214432
102.95,7.045321
103,5.954474
103.05,4.982939
103.1,4.196564
103.15,3.750683
103.2,3.556912
103.25,3.368399
103.3,2.905685
103.35,3.019253
103.4,3.166474
103.45,3.039846
103.5,2.527674
103.55,2.157546
103.6,2.034838
103.65,2.617075
103.7,4.949385
103.75,7.990836
103.8,13.31256
103.85,22.85664
103.9,38.69392
103.95,62.06446
104,93.59364
104.05,133.484
104.1,182.9332
104.15,242.0699
104.2,310.8135
104.25,385.2304
104.3,453.336
104.35,506.4203
104.4,549.1321
104.45,576.8978
104.5,586.7872
104.55,580.8798
104.6,562.315
104.65,528.3498
104.7,487.6691
104.75,445.7128
104.8,399.2837
104.85,351.8165
104.9,305.26
104.95,261.0936
105,219.1108
105.05,182.6756
105.1,151.9376
105.15,127.8515
105.2,108.9861
105.25,94.0138
105.3,81.46897
105.35,70.35019
105.4,61.47509
105.45,54.41339
105.5,47.98971
105.55,43.01442
105.6,39.65922
105.65,35.62434
105.7,32.33353
105.75,28.93066
105.8,25.8537
105.85,23.2562
105.9,21.68864
105.95,20.94802
106,20.06279
106.05,18.93858
106.1,16.96288
106.15,15.76364
106.2,15.49871
106.25,15.59764
106.3,15.71894
106.35,14.5541
106.4,11.97765
106.45,9.703382
106.5,8.919224
106.55,10.09785
106.6,11.01539
106.65,10.45588
106.7,8.926728
106.75,7.231451
106.8,5.944944
106.85,5.403403
106.9,5.556312
106.95,5.692468
107,6.000906
107.05,6.376225
107.1,5.635502
107.15,4.099128
107.2,3.119414
107.25,2.998059
107.3,3.504914
107.35,4.230946
107.4,5.103128
107.45,6.0284
107.5,6.669876
107.55,6.573139
107.6,5.612096
107.65,4.397305
107.7,3.69086
107.75,4.733451
107.8,6.158343
107.85,6.214701
107.9,5.370056
107.95,4.687214
108,4.79847
108.05,5.444588
108.1,6.431645
108.15,6.311876
108.2,4.847405
108.25,3.87424
108.3,3.716312
108.35,4.201224
108.4,4.714881
108.45,4.927211
108.5,4.732532
108.55,4.979468
108.6,5.999162
108.65,7.386898
108.7,8.702842
108.75,10.41066
108.8,15.59876
108.85,25.48087
108.9,40.31927
108.95,59.62391
109,85.69302
109.05,120.9267
109.1,159.7426
109.15,200.662
109.2,243.2398
109.25,282.7362
109.3,320.3763
109.35,365.2169
109.4,414.3425
109.45,458.4463
109.5,486.5696
109.55,498.1289
109.6,493.2271
109.65,477.9435
109.7,455.7829
109.75,428.7881
109.8,402.9678
109.85,379.7236
109.9,354.1729
109.95,320.2052
110,283.3126
110.05,245.993
110.1,215.7956
110.15,191.2371
110.2,167.7871
110.25,143.6476
110.3,122.0938
110.35,105.8948
110.4,89.71441
110.45,75.75891
110.5,64.38457
110.55,56.96067
110.6,52.48674
110.65,48.59271
110.7,43.15293
110.75,36.02992
110.8,30.93686
110.85,28.03403
110.9,26.24587
110.95,24.92834
111,23.421
111.05,21.15569
111.1,19.5519
111.15,18.16605
111.2,15.23744
111.25,12.25091
111.3,9.305807
111.35,6.253588
111.4,4.58448
111.45,4.401248
111.5,4.311642
111.55,3.724745
111.6,2.950057
111.65,1.404609
111.7,0.2724423
111.75,0.9102672
111.8,1.842069
111.85,2.454642
111.9,3.21068
111.95,3.965458
112,5.095844
112.05,7.976706
112.1,11.44371
112.15,16.38937
112.2,23.12444
112.25,28.31619
112.3,34.56091
112.35,45.1057
112.4,59.44763
112.45,77.35812
112.5,99.53431
112.55,118.7833
112.6,130.8422
112.65,141.4878
112.7,155.9132
112.75,171.7721
112.8,187.8474
112.85,202.4465
112.9,211.4663
112.95,219.6494
113,225.7111
113.05,226.0295
113.1,217.8112
113.15,203.0475
113.2,192.8012
113.25,186.5667
113.3,183.6025
113.35,178.5389
113.4,167.2991
113.45,153.3693
113.5,139.1659
113.55,125.9432
113.6,111.9659
113.65,98.63779
113.7,88.24085
113.75,77.43462
113.8,67.99185
113.85,58.13695
113.9,47.34555
113.95,40.27352
114,37.88432
114.05,38.851
114.1,38.29174
114.15,36.89045
114.2,33.0578
114.25,26.53289
114.3,21.31301
114.35,19.76138
114.4,20.85284
114.45,20.75175
114.5,19.63066
114.55,17.25068
114.6,14.17669
114.65,12.4264
114.7,12.24536
114.75,12.46147
114.8,10.97615
114.85,9.322835
114.9,8.219102
114.95,7.012865
115,6.159279
115.05,6.042411
115.1,6.419784
115.15,6.33049
115.2,6.410853
115.25,6.663473
115.3,6.478595
115.35,6.094051
115.4,5.857587
115.45,4.941307
115.5,2.966157
115.55,1.01628
115.6,-0.6448937
115.65,-1.738133
115.7,-0.4440213
115.75,1.569013
115.8,2.617937
115.85,2.477526
115.9,1.942046
115.95,1.730022
116,1.777946
116.05,1.968512
116.1,1.149991
116.15,-0.6314314
116.2,-1.98514
116.25,-2.223029
116.3,-1.775279
116.35,-1.466522
116.4,-1.633166
116.45,-2.103187
116.5,-2.344815
116.55,-2.77896
116.6,-3.381166
116.65,-4.101733
116.7,-4.574902
116.75,-4.568083
116.8,-3.880828
116.85,-2.675323
116.9,-2.197743
116.95,-1.818306
117,-1.614753
117.05,-2.018555
117.1,-2.952977
117.15,-3.601244
117.2,-3.905327
117.25,-4.291162
117.3,-4.346312
117.35,-4.446854
117.4,-4.783578
117.45,-4.84683
117.5,-4.785233
117.55,-4.856114
117.6,-5.178925
117.65,-5.158811
117.7,-4.716692
117.75,-4.366116
117.8,-4.275846
117.85,-4.411633
117.9,-4.377683
117.95,-4.469126
118,-4.501685
118.05,-4.702468
118.1,-4.887453
118.15,-4.68295
118.2,-4.446039
118.25,-4.421823
118.3,-4.372586
118.35,-4.090624
118.4,-4.098924
118.45,-4.090955
118.5,-4.167961
118.55,-4.327961
118.6,-4.433762
118.65,-4.346132
118.7,-4.370965
118.75,-4.752678
118.8,-4.932471
118.85,-4.929162
118.9,-4.943515
118.95,-4.813641
119,-4.709475
119.05,-4.766233
119.1,-4.968266
119.15,-5.150513
119.2,-5.389535
119.25,-5.401224
119.3,-4.857757
119.35,-4.634118
119.4,-4.607872
119.45,-4.752182
119.5,-4.996063
119.55,-5.243281
119.6,-5.178749
119.65,-4.869581
119.7,-4.693714
119.75,-4.488903
119.8,-4.462999
119.85,-4.617016
119.9,-4.813197
119.95,-4.945563
120,-4.982611
120.05,-5.056959
120.1,-5.000645
120.15,-4.946879
120.2,-4.944308
120.25,-4.945426
120.3,-4.997591
120.35,-5.226029
120.4,-5.261543
120.45,-5.005825
120.5,-4.908773
120.55,-4.947081
120.6,-4.973315
120.65,-5.237914
120.7,-5.376094
120.75,-5.04644
120.8,-4.690473
120.85,-4.627171
120.9,-4.647003
120.95,-4.7758
121,-5.124357
121.05,-5.104178
121.1,-4.847816
121.15,-4.616147
121.2,-4.532858
121.25,-4.509861
121.3,-4.672834
121.35,-4.746035
121.4,-4.662447
121.45,-4.717408
121.5,-4.768652
121.55,-4.931302
121.6,-5.05066
121.65,-4.975681
121.7,-4.802046
121.75,-4.644062
121.8,-4.697611
121.85,-4.78444
121.9,-4.878786
121.95,-4.942175
122,-4.736009
122.05,-4.532959
122.1,-4.47541
122.15,-4.725603
122.2,-4.91907
122.25,-4.995148
122.3,-5.006985
122.35,-4.849897
122.4,-4.711957
122.45,-4.783149
122.5,-4.797342
122.55,-4.784757
122.6,-4.815126
122.65,-4.669327
122.7,-4.484957
122.75,-4.473481
122.8,-4.661222
122.85,-4.844635
122.9,-4.854351
122.95,-4.590338
123,-4.321869
123.05,-4.281713
123.1,-4.393051
123.15,-4.576067
123.2,-4.724089
123.25,-4.596421
123.3,-4.598187
123.35,-4.775098
123.4,-4.952574
123.45,-5.141592
123.5,-5.14631
123.55,-4.949269
123.6,-4.721983
123.65,-4.517919
123.7,-4.495206
123.75,-4.731123
123.8,-4.904622
123.85,-4.889727
123.9,-4.860159
123.95,-4.816034
124,-4.72732
124.05,-4.692729
124.1,-4.636218
124.15,-4.674006
124.2,-4.727474
124.25,-4.763413
124.3,-4.811843
124.35,-4.883803
124.4,-4.920848
124.45,-4.91975
124.5,-4.862858
124.55,-4.761067
124.6,-4.547912
124.65,-4.33087
124.7,-4.158556
124.75,-4.149209
124.8,-4.365349
124.85,-4.697858
124.9,-5.136391
124.95,-5.155699
125,-4.996727
125.05,-4.769708
125.1,-4.661118
125.15,-4.706828
125.2,-4.775413
125.25,-4.84563
125.3,-4.918087
125.35,-4.886535
125.4,-4.90124
125.45,-4.709879
125.5,-4.623132
125.55,-4.677862
125.6,-4.79313
125.65,-4.941331
125.7,-4.987467
125.75,-5.016955
125.8,-4.986231
125.85,-4.984623
125.9,-4.99264
125.95,-4.946959
126,-5.011112
126.05,-5.112752
126.1,-5.227924
126.15,-5.351853
126.2,-5.271783
126.25,-5.219597
126.3,-5.058471
126.35,-4.795481
126.4,-4.632594
126.45,-4.602988
126.5,-4.75956
126.55,-4.904848
126.6,-5.089323
126.65,-5.199075
126.7,-5.160039
126.75,-5.055776
126.8,-4.88797
126.85,-4.88797
126.9,-4.88797
126.95,-4.88797
127,-4.88797
127.05,-4.88797
127.1,-4.88797
127.15,-4.88797
127.2,-4.88797
127.25,-4.88797
127.3,-4.88797
127.35,-4.88797
127.4,-4.88797
127.45,-4.88797
127.5,-4.88797
127.55,-4.88797
127.6,-4.88797
127.65,-4.88797
127.7,-4.88797
127.75,-4.88797
127.8,-4.88797
127.85,-4.88797
127.9,-4.88797
127.95,-4.88797
128,-4.88797
128.05,-4.88797
128.1,-4.88797
128.15,-4.88797
128.2,-4.88797
128.25,-4.88797
128.3,-4.88797
128.35,-4.88797
128.4,-4.88797
128.45,-4.88797
128.5,-4.88797
128.55,-4.88797
128.6,-4.88797
128.65,-4.88797
128.7,-4.88797
128.75,-4.88797
128.8,-4.88797
128.85,-4.88797
128.9,-4.88797
128.95,-4.88797
129,-4.88797
129.05,-4.88797
129.1,-4.88797
129.15,-4.88797
129.2,-4.88797
129.25,-4.88797
129.3,-4.88797
129.35,-4.88797
129.4,-4.88797
129.45,-4.88797
129.5,-4.88797
129.55,-4.88797
129.6,-4.88797
129.65,-4.88797
129.7,-4.88797
129.75,-4.88797
129.8,-4.88797
129.85,-4.88797
129.9,-4.88797
129.95,-4.88797
130,-4.88797
130.05,-4.88797
130.1,-4.88797
130.15,-4.88797
130.2,-4.88797
130.25,-4.88797
130.3,-4.88797
130.35,-4.88797
130.4,-4.88797
130.45,-4.88797
130.5,-4.88797
130.55,-4.88797
130.6,-4.88797
130.65,-4.88797
130.7,-4.88797
130.75,-4.88797
130.8,-4.88797
130.85,-4.88797
130.9,-4.88797
130.95,-4.88797
131,-4.88797
131.05,-4.88797
131.1,-4.88797
131.15,-4.88797
131.2,-4.88797
131.25,-4.88797
131.3,-4.88797
131.35,-4.88797
131.4,-4.88797
131.45,-4.88797
131.5,-4.88797
131.55,-4.88797
131.6,-4.88797
131.65,-4.88797
131.7,-4.88797
131.75,-4.88797
131.8,-4.88797
131.85,-4.88797
131.9,-4.88797
131.95,-4.88797
132,-4.88797
132.05,-4.88797
132.1,-4.88797
132.15,-4.88797
132.2,-4.88797
132.25,-4.88797
132.3,-4.88797
132.35,-4.88797
132.4,-4.88797
132.45,-4.88797
132.5,-4.88797
132.55,-4.88797
132.6,-4.88797
132.65,-4.88797
132.7,-4.88797
132.75,-4.88797
132.8,-4.88797
132.85,-4.88797
132.9,-4.88797
132.95,-4.88797
133,-4.88797
133.05,-4.88797
133.1,-4.88797
133.15,-4.88797
133.2,-4.88797
133.25,-4.88797
133.3,-4.88797
133.35,-4.88797
133.4,-4.88797
133.45,-4.88797
133.5,-4.88797
133.55,-4.88797
133.6,-4.88797
133.65,-4.88797
133.7,-4.88797
133.75,-4.88797
133.8,-4.88797
133.85,-4.88797
133.9,-4.88797
133.95,-4.88797
134,-4.88797
134.05,-4.88797
134.1,-4.88797
134.15,-4.88797
134.2,-4.88797
134.25,-4.88797
134.3,-4.88797
134.35,-4.88797
134.4,-4.88797
134.45,-4.88797
134.5,-4.88797
134.55,-4.88797
134.6,-4.88797
134.65,-4.88797
134.7,-4.88797
134.75,-4.88797
134.8,-4.88797
134.85,-4.88797
134.9,-4.88797
134.95,-4.88797
135,-4.88797
135.05,-4.88797
135.1,-4.88797
135.15,-4.88797
135.2,-4.88797
135.25,-4.88797
135.3,-4.88797
135.35,-4.88797
135.4,-4.88797
135.45,-4.88797
135.5,-4.88797
135.55,-4.88797
135.6,-4.88797
135.65,-4.88797
135.7,-4.88797
135.75,-4.88797
135.8,-4.88797
135.85,-4.88797
135.9,-4.88797
135.95,-4.88797
136,-4.88797
136.05,-4.88797
136.1,-4.88797
136.15,-4.88797
136.2,-4.88797
136.25,-4.88797
136.3,-4.88797
136.35,-4.88797
136.4,-4.88797
136.45,-4.88797
136.5,-4.88797
136.55,-4.88797
136.6,-4.88797
136.65,-4.88797
136.7,-4.88797
136.75,-4.88797
136.8,-4.88797
136.85,-4.88797
136.9,-4.88797
136.95,-4.88797
137,-4.88797
137.05,-4.88797
137.1,-4.88797
137.15,-4.88797
137.2,-4.88797
137.25,-4.88797
137.3,-4.88797
137.35,-4.88797
137.4,-4.88797
137.45,-4.88797
137.5,-4.88797
137.55,-4.88797
137.6,-4.88797
137.65,-4.88797
137.7,-4.88797
137.75,-4.88797
137.8,-4.88797
137.85,-4.88797
137.9,-4.88797
137.95,-4.88797
138,-4.88797
 
Alignment,On
